#index kx_value ky_value E0(k) Overlap_bottom Overlap_top E1(k) Overlap_bottom Overlap_top  E2(k) .....
0  0.0639114  -0.0368992   -8.74175  0.109833  0.890167  15.9804  0.985071  0.0149286  34.7779  0.841445  0.158555  41.4624  0.942078  0.0579224  86.3075  0.0770531  0.922947  88.2098  0.0660699  0.93393  93.8193  0.05387  0.94613  103.2  0.12888  0.87112  107.118  0.0505193  0.949481  112.86  0.168463  0.831537  137.286  0.80949  0.19051  137.519  0.904042  0.0959579  137.939  0.881193  0.118807  225.559  0.980786  0.0192135  225.825  0.97912  0.0208798  226.485  0.979976  0.020024  240.471  0.972375  0.0276247  241.15  0.972379  0.0276212  241.491  0.970302  0.0296976  299.569  0.0112406  0.988759  299.663  0.0137192  0.986281  299.703  0.0112072  0.988793  302.208  0.0358302  0.96417  302.24  0.0326345  0.967365  302.325  0.0348048  0.965195  399.089  0.0966601  0.90334  399.176  0.0770931  0.922907  400.08  0.101148  0.898852  400.609  0.0403318  0.959668  401.508  0.0642425  0.935757  401.637  0.0415176  0.958482  430.296  0.898899  0.101101  430.36  0.894558  0.105442  430.373  0.894807  0.105193  444.663  0.961834  0.0381663  444.68  0.961927  0.0380734  444.699  0.960935  0.0390649  533.871  0.99343  0.00656959  533.871  0.99343  0.00656958  533.871  0.993428  0.00657172  634.762  0.979598  0.0204019  634.762  0.979475  0.020525  634.777  0.979427  0.0205728  635.997  0.981542  0.0184578  636.012  0.981482  0.0185179  636.012  0.981374  0.0186263  694.185  0.00582642  0.994174  694.192  0.00578003  0.99422  694.197  0.00604629  0.993954  696.252  0.0259788  0.974021  696.257  0.0262996  0.9737  696.267  0.0262598  0.97374  709.895  0.007271  0.992729  709.906  0.00747998  0.99252  709.907  0.007305  0.992695  711.637  0.0142253  0.985775  711.638  0.0141035  0.985896  711.647  0.014247  0.985753  836.376  0.990843  0.00915662  836.376  0.990844  0.0091565  836.376  0.990844  0.00915637  901.928  0.056749  0.943251  901.929  0.0566606  0.943339  901.947  0.0567767  0.943223  902.061  0.0531242  0.946876  902.079  0.0532368  0.946763  902.08  0.0531474  0.946853  939.141  0.943076  0.0569243  939.141  0.943068  0.0569318  939.142  0.943037  0.0569633  940.286  0.947168  0.0528317  940.286  0.94714  0.0528598  940.286  0.947134  0.0528664  1028.85  0.996111  0.00388864  1029.03  0.996024  0.00397609  1029.03  0.996024  0.00397609  1044.65  0.995259  0.00474131  1044.87  0.995375  0.00462527  1044.87  0.995375  0.00462527  1203.2  0.00314378  0.996856  1203.38  0.00315448  0.996846  1203.38  0.00315383  0.996846  1204.25  0.0073557  0.992644  1204.59  0.00696506  0.993035  1204.59  0.00696461  0.993035  1237.47  0.98319  0.0168099  1237.57  0.982257  0.0177432  1237.68  0.98331  0.0166898  1237.68  0.98331  0.0166904  1237.79  0.982354  0.0176461  1237.79  0.982353  0.0176467  1304.5  0.00534288  0.994657  1304.68  0.00533725  0.994663  1304.69  0.00535679  0.994643  1305.73  0.00540749  0.994593  1305.91  0.00562454  0.994375  1305.93  0.00532965  0.99467  1306.25  0.0167049  0.983295  1306.59  0.0164809  0.983519  1306.59  0.0164971  0.983503  1307.45  0.0161769  0.983823  1307.8  0.015644  0.984356  1307.8  0.0156564  0.984344  1431.62  0.993222  0.00677842  1431.92  0.993562  0.00643798  1431.92  0.993562  0.00643798  1447.39  0.995192  0.00480834  1447.73  0.995569  0.00443138  1447.73  0.995569  0.00443138  1604.79  0.0543123  0.945688  1604.79  0.0543176  0.945682  1604.95  0.0546952  0.945305  1604.95  0.0546131  0.945387  1605.09  0.0541897  0.94581  1605.09  0.0541897  0.94581  1638.29  0.997627  0.00237266  1642.4  0.944866  0.0551337  1642.42  0.94495  0.0550501  1642.5  0.945987  0.0540131  1642.5  0.945983  0.0540173  1642.66  0.945716  0.0542842  1642.66  0.945716  0.0542842  1739.64  0.99645  0.00355032  1740.88  0.996368  0.00363221  1899.01  0.00212389  0.997876  1899.97  0.00445486  0.995545  1914.89  0.00248778  0.997512  1915.8  0.00336457  0.996635  2040.91  0.984276  0.015724  2040.91  0.984287  0.015713  2108.39  0.00589765  0.994102  2108.44  0.00443712  0.995563  2109.93  0.0161157  0.983884  2109.95  0.0160999  0.9839  2141.19  0.995292  0.00470763  2242.99  0.995138  0.00486248  2244.23  0.995284  0.00471575  2434.49  0.998327  0.0016728  2450.39  0.998071  0.00192917  2643.95  0.996903  0.00309695  2643.98  0.9971  0.00290018  2709.26  0.00149603  0.998504  2710.02  0.00265247  0.997348  2811.09  0.00155175  0.998448  2811.79  0.00327673  0.996723  2812.34  0.00157784  0.998422  2813.03  0.00319111  0.996809  3038  0.997638  0.00236156  3053.91  0.998086  0.00191385  3345.14  0.998769  0.00123083  3446.97  0.998806  0.00119372  3448.22  0.998786  0.00121434  3706.76  0.000791248  0.999209  3707.26  0.00184018  0.99816  3722.73  0.000821487  0.999179  3723.19  0.00152728  0.998473  4049.91  0.998589  0.00141113  4443.02  0.999345  0.000655284  4459  0.999322  0.000677532  4819.38  0.000121849  0.999878  4819.6  0.00116877  0.998831  5656.03  0.999897  0.000103144  
1  0.0319557  -0.0184496   -2.56963  0.220316  0.779684  13.9041  0.882602  0.117398  26.804  0.694134  0.305866  52.4797  0.289273  0.710727  60.4552  0.192423  0.807577  73.8476  0.92299  0.0770101  83.2021  0.745196  0.254804  107.06  0.0357556  0.964244  108.936  0.0475289  0.952471  149.152  0.121721  0.878279  162.558  0.309302  0.690698  173.5  0.971992  0.0280078  174.296  0.967275  0.0327247  179.036  0.871856  0.128144  180.477  0.699389  0.300611  207.975  0.0223274  0.977673  225.863  0.929792  0.0702082  225.95  0.929322  0.0706784  260.831  0.0752673  0.924733  260.843  0.0746817  0.925318  305.281  0.307363  0.692637  308.73  0.0959815  0.904019  317.763  0.985545  0.0144548  324.867  0.682504  0.317496  333.099  0.978582  0.0214175  336.942  0.911081  0.0889188  357.866  0.0113894  0.988611  357.88  0.0134259  0.986574  410.119  0.0210705  0.978929  410.141  0.0209132  0.979087  410.441  0.0221744  0.977826  474.895  0.992172  0.00782758  474.896  0.992172  0.0078285  476.845  0.974332  0.0256678  476.852  0.974565  0.0254349  507.361  0.140696  0.859304  508.464  0.150866  0.849134  527.354  0.984692  0.0153077  527.356  0.984861  0.0151393  531.777  0.861707  0.138293  531.917  0.851309  0.148691  552.018  0.00948392  0.990516  567.637  0.0100853  0.989915  610.268  0.0262532  0.973747  610.268  0.0262532  0.973747  626.351  0.93597  0.0640297  626.351  0.93597  0.0640299  664.201  0.0535492  0.946451  664.201  0.053548  0.946452  676.092  0.994716  0.0052841  677.584  0.988349  0.0116513  758.25  0.155451  0.844549  758.515  0.141479  0.858521  759.356  0.00504162  0.994958  759.356  0.00503202  0.994968  777.15  0.986281  0.013719  778.378  0.986677  0.013323  781.787  0.844375  0.155625  782.793  0.858691  0.141309  812.027  0.0081491  0.991851  812.028  0.00820682  0.991793  854.858  0.0167817  0.983218  870.408  0.0100493  0.989951  911.172  0.026591  0.973409  911.172  0.0265878  0.973412  926.695  0.995819  0.00418118  926.893  0.995799  0.00420052  928.179  0.981298  0.0187018  928.179  0.9813  0.0186999  979.383  0.994134  0.00586645  979.596  0.994204  0.00579559  981.141  0.983323  0.0166774  981.143  0.983313  0.016687  1010.96  0.00368492  0.996315  1059.37  0.148993  0.851007  1059.39  0.14922  0.85078  1078.73  0.985931  0.0140691  1078.95  0.986027  0.0139734  1083.27  0.85097  0.14903  1083.27  0.85075  0.14925  1112.03  0.00902076  0.990979  1112.23  0.00740907  0.992591  1112.39  0.00910096  0.990899  1113.48  0.00734977  0.99265  1164.97  0.0112367  0.988763  1165.34  0.0107314  0.989269  1221.46  0.996662  0.00333843  1222.9  0.991665  0.00833542  1228.16  0.945144  0.0548556  1228.4  0.945693  0.0543068  1237.32  0.996143  0.00385732  1238.67  0.994505  0.00549535  1265.8  0.0548949  0.945105  1266.15  0.0539232  0.946077  1311.58  0.00297455  0.997025  1311.75  0.00298968  0.99701  1364.32  0.00392331  0.996077  1364.5  0.00389143  0.996109  1410.92  0.147653  0.852347  1411.21  0.148553  0.851447  1413.59  0.011286  0.988714  1430.27  0.988497  0.0115027  1430.42  0.982041  0.0179586  1434.88  0.852697  0.147303  1435.05  0.851403  0.148597  1463.85  0.00706423  0.992936  1464.03  0.00702421  0.992976  1515.49  0.0109014  0.989099  1516.73  0.0104255  0.989575  1529.12  0.997422  0.00257778  1530.15  0.994822  0.00517769  1530.45  0.995144  0.00485572  1581.88  0.996706  0.00329368  1583.04  0.993718  0.00628239  1583.35  0.994062  0.00593815  1614.11  0.0162181  0.983782  1614.31  0.0158295  0.984171  1681.43  0.994853  0.00514658  1683.38  0.98372  0.0162805  1683.45  0.98408  0.01592  1764.34  0.0042661  0.995734  1812.53  0.15034  0.84966  1812.68  0.148814  0.851186  1817.22  0.00505758  0.994942  1832.01  0.989471  0.0105293  1836.29  0.849302  0.150698  1836.53  0.851143  0.148857  1917.43  0.0108423  0.989158  2014.41  0.0019942  0.998006  2031.56  0.945356  0.0546438  2067.19  0.00242961  0.99757  2069.01  0.0549887  0.945011  2167.2  0.0029655  0.997034  2282.15  0.998225  0.00177518  2282.96  0.996621  0.00337917  2317.47  0.00591558  0.994084  2334.94  0.997876  0.00212363  2336.14  0.996568  0.00343245  2434.95  0.997544  0.00245625  2435.89  0.994114  0.00588559  2567.37  0.00411271  0.995887  2585.27  0.994215  0.00578514  2620.55  0.00288249  0.997118  2720.27  0.0046278  0.995372  2867.84  0.0014317  0.998568  2921.11  0.001251  0.998749  3020.65  0.00176801  0.998232  3185.78  0.998703  0.00129716  3186.93  0.998026  0.00197423  3239.04  0.99889  0.00110956  3239.62  0.997851  0.00214873  3338.59  0.998471  0.00152875  3521.57  0.00175655  0.998243  3574.25  0.00189037  0.99811  3872.49  0.000686861  0.999313  3925.14  0.000867978  0.999132  4240.62  0.999372  0.000627548  4242.33  0.998636  0.00136372  4293.27  0.999216  0.000784361  4627.17  0.0012395  0.99876  5028.54  0.000116722  0.999883  5446.87  0.999893  0.000107394  
2  0  0   10.3443  0.5  0.5  15.2408  0.5  0.5  22.922  0.5  0.5  33.3727  0.5  0.5  48.643  0.5  0.5  54.8058  0.5  0.5  128.722  0.5  0.5  129.108  0.5  0.5  130.996  0.5  0.5  132.1  0.5  0.5  137.706  0.5  0.5  137.825  0.5  0.5  217.638  0.5  0.5  218.197  0.5  0.5  221.967  0.5  0.5  224.642  0.5  0.5  228.995  0.5  0.5  234.05  0.5  0.5  237.849  0.5  0.5  242.922  0.5  0.5  245.187  0.5  0.5  247.663  0.5  0.5  249.377  0.5  0.5  249.711  0.5  0.5  425.148  0.5  0.5  425.589  0.5  0.5  425.882  0.5  0.5  426.9  0.5  0.5  427.255  0.5  0.5  427.866  0.5  0.5  440.731  0.5  0.5  441.295  0.5  0.5  441.681  0.5  0.5  442.605  0.5  0.5  442.93  0.5  0.5  443.322  0.5  0.5  535.34  0.5  0.5  535.406  0.5  0.5  535.518  0.5  0.5  535.649  0.5  0.5  535.762  0.5  0.5  535.828  0.5  0.5  627.475  0.5  0.5  627.691  0.5  0.5  627.925  0.5  0.5  628.38  0.5  0.5  628.624  0.5  0.5  628.865  0.5  0.5  644.51  0.5  0.5  644.702  0.5  0.5  644.891  0.5  0.5  645.247  0.5  0.5  645.425  0.5  0.5  645.592  0.5  0.5  835.046  0.5  0.5  835.053  0.5  0.5  835.062  0.5  0.5  835.07  0.5  0.5  835.258  0.5  0.5  835.273  0.5  0.5  935.396  0.5  0.5  935.55  0.5  0.5  935.709  0.5  0.5  936.032  0.5  0.5  936.265  0.5  0.5  936.632  0.5  0.5  937.239  0.5  0.5  937.607  0.5  0.5  937.829  0.5  0.5  938.159  0.5  0.5  938.28  0.5  0.5  938.478  0.5  0.5  1030.28  0.5  0.5  1030.3  0.5  0.5  1030.33  0.5  0.5  1030.35  0.5  0.5  1030.64  0.5  0.5  1030.69  0.5  0.5  1045.94  0.5  0.5  1045.96  0.5  0.5  1045.98  0.5  0.5  1046.01  0.5  0.5  1046.35  0.5  0.5  1046.39  0.5  0.5  1230.09  0.5  0.5  1230.1  0.5  0.5  1230.11  0.5  0.5  1230.43  0.5  0.5  1230.43  0.5  0.5  1230.68  0.5  0.5  1247.07  0.5  0.5  1247.08  0.5  0.5  1247.09  0.5  0.5  1247.38  0.5  0.5  1247.38  0.5  0.5  1247.6  0.5  0.5  1430.46  0.500017  0.499983  1430.46  0.499983  0.500017  1430.62  0.5  0.5  1430.62  0.5  0.5  1446.31  0.499988  0.500012  1446.31  0.500012  0.499988  1446.5  0.5  0.5  1446.5  0.5  0.5  1637.75  0.5  0.5  1637.82  0.5  0.5  1638.05  0.5  0.5  1638.31  0.5  0.5  1639.04  0.5  0.5  1639.37  0.5  0.5  1639.75  0.5  0.5  1640.08  0.5  0.5  1640.72  0.5  0.5  1640.87  0.5  0.5  1641.08  0.5  0.5  1641.27  0.5  0.5  1741.04  0.5  0.5  1741.04  0.5  0.5  1741.21  0.5  0.5  1741.23  0.5  0.5  1742.3  0.5  0.5  1742.3  0.5  0.5  1742.44  0.5  0.5  1742.47  0.5  0.5  2033.41  0.5  0.5  2033.41  0.5  0.5  2033.61  0.5  0.5  2050.39  0.5  0.5  2050.39  0.5  0.5  2050.57  0.5  0.5  2140.31  0.992178  0.00782223  2140.31  0.00782223  0.992178  2241.88  0.997531  0.00246917  2241.88  0.00246917  0.997531  2243.2  0.997192  0.00280812  2243.2  0.00280812  0.997192  2435.5  0.996729  0.00327133  2435.5  0.00327133  0.996729  2451.38  0.997414  0.00258574  2451.38  0.00258574  0.997414  2543.21  0.00734203  0.992658  2543.21  0.992658  0.00734203  2645.04  0.00789357  0.992106  2645.04  0.992106  0.00789357  3037.16  0.00174648  0.998254  3037.16  0.998254  0.00174648  3053.11  0.00175633  0.998244  3053.11  0.998244  0.00175633  3246.41  0.997936  0.0020639  3246.41  0.0020639  0.997936  3346.49  0.00198988  0.99801  3346.49  0.99801  0.00198988  3448.19  0.988492  0.0115076  3448.19  0.0115076  0.988492  4048.81  0.000611973  0.999388  4048.81  0.999388  0.000611973  4150.41  0.000942074  0.999058  4150.41  0.999058  0.000942074  4451.49  0.980448  0.0195516  4451.49  0.0195516  0.980448  5254.44  0.999877  0.000122974  5254.44  0.000122974  0.999877  
3  -0.0319557  0.0184496   -2.56963  0.779684  0.220316  13.9041  0.117398  0.882602  26.804  0.305866  0.694134  52.4797  0.710727  0.289273  60.4552  0.807577  0.192423  73.8476  0.0770101  0.92299  83.2021  0.254804  0.745196  107.06  0.964244  0.0357556  108.936  0.952471  0.0475289  149.152  0.878279  0.121721  162.558  0.690698  0.309302  173.5  0.0280078  0.971992  174.296  0.0327247  0.967275  179.036  0.128144  0.871856  180.477  0.300611  0.699389  207.975  0.977673  0.0223274  225.863  0.0702082  0.929792  225.95  0.0706784  0.929322  260.831  0.924733  0.0752673  260.843  0.925318  0.0746817  305.281  0.692637  0.307363  308.73  0.904019  0.0959815  317.763  0.014455  0.985545  324.867  0.317496  0.682504  333.1  0.0214174  0.978583  336.942  0.0889188  0.911081  357.866  0.988611  0.0113895  357.88  0.986574  0.0134259  410.119  0.97893  0.0210705  410.141  0.979087  0.0209132  410.441  0.977826  0.0221739  474.895  0.00782757  0.992172  474.895  0.00782849  0.992172  476.845  0.0256677  0.974332  476.852  0.0254348  0.974565  507.361  0.859305  0.140695  508.464  0.849137  0.150863  527.354  0.0153078  0.984692  527.356  0.0151392  0.984861  531.777  0.138293  0.861707  531.917  0.148689  0.851311  552.018  0.990516  0.00948387  567.637  0.989915  0.0100853  610.268  0.973747  0.0262531  610.268  0.973747  0.0262531  626.351  0.0640297  0.93597  626.352  0.0640285  0.935972  664.201  0.946451  0.0535489  664.201  0.946452  0.0535481  676.318  0.00530251  0.994697  677.584  0.0116515  0.988349  758.25  0.844548  0.155452  758.515  0.85852  0.14148  759.356  0.994965  0.00503489  759.57  0.994933  0.00506671  777.386  0.0137936  0.986206  778.639  0.0130088  0.986991  781.787  0.155625  0.844375  782.793  0.14131  0.85869  812.028  0.99181  0.00818991  812.263  0.991908  0.00809197  855.231  0.983852  0.0161478  870.84  0.990624  0.00937623  911.172  0.97341  0.0265904  911.414  0.973712  0.0262879  926.695  0.00418121  0.995819  926.695  0.00418714  0.995813  928.179  0.0186989  0.981301  928.555  0.018  0.982  979.383  0.00586644  0.994134  979.385  0.00588196  0.994118  981.141  0.0166774  0.983323  981.534  0.0160121  0.983988  1010.76  0.996327  0.00367273  1059.8  0.85005  0.14995  1059.99  0.851974  0.148026  1078.73  0.0140995  0.9859  1078.73  0.0140525  0.985947  1083.55  0.150562  0.849438  1083.83  0.148099  0.851901  1111.99  0.992893  0.00710679  1112.03  0.990739  0.00926116  1112.07  0.990395  0.00960494  1113.27  0.992524  0.00747587  1164.97  0.988763  0.0112365  1164.97  0.988764  0.0112365  1222.58  0.00874073  0.991259  1228.16  0.0548559  0.945144  1228.57  0.0546133  0.945387  1238.3  0.00594242  0.994058  1265.8  0.945105  0.054895  1266.06  0.944824  0.0551759  1311.58  0.997025  0.00297474  1364.32  0.996077  0.00392324  1410.67  0.85048  0.14952  1410.68  0.850773  0.149227  1434.54  0.149543  0.850457  1434.56  0.14925  0.85075  1464.29  0.993912  0.00608752  1529.12  0.00257786  0.997422  1529.28  0.00259023  0.99741  1530.15  0.00518032  0.99482  1581.88  0.00329359  0.996706  1582.05  0.00326954  0.99673  1583.36  0.0062754  0.993725  1613.92  0.983686  0.0163138  1656.52  0.997532  0.00246767  1672.41  0.997188  0.00281218  1681.6  0.00510678  0.994893  1681.87  0.00463265  0.995367  1683.14  0.0163439  0.983656  1764.34  0.995732  0.00426783  1764.62  0.996011  0.00398901  1817.51  0.995231  0.00476925  1817.53  0.994942  0.00505833  1831.63  0.011251  0.988749  1831.8  0.011201  0.988799  1865.43  0.986903  0.0130968  1865.53  0.993587  0.00641283  1882.21  0.0101579  0.989842  1917.18  0.989164  0.0108361  1917.47  0.989489  0.0105109  1983.72  0.0058953  0.994105  1984.96  0.0056841  0.994316  2014.42  0.998003  0.0019965  2031.42  0.0542916  0.945708  2067.7  0.998114  0.00188578  2069.1  0.945969  0.054031  2166.78  0.996599  0.00340082  2264.16  0.851925  0.148075  2264.39  0.851047  0.148953  2282.16  0.00177364  0.998226  2283.44  0.00295972  0.99704  2288.09  0.147824  0.852176  2288.23  0.148983  0.851017  2335.43  0.00162901  0.998371  2335.84  0.00338617  0.996614  2434.55  0.00285144  0.997149  2517.74  0.984336  0.0156643  2567.87  0.997441  0.00255868  2586.75  0.0159776  0.984022  2620.26  0.997125  0.00287546  2785.66  0.0102615  0.989739  2868.49  0.999072  0.000928499  2871  0.989442  0.0105577  2920.66  0.998367  0.00163318  3170.95  0.99543  0.0045698  3186.42  0.000836628  0.999163  3187.77  0.00369605  0.996304  3238.6  0.00146363  0.998536  3339.28  0.00310701  0.996893  3488.93  0.00274937  0.997251  3522.39  0.997863  0.0021366  3673.9  0.997376  0.00262402  3873.33  0.999433  0.000567018  4024.67  0.99884  0.00115993  4241.46  0.000521797  0.999478  4292.55  0.00153572  0.998464  4392.81  0.00103123  0.998969  4677.39  0.998619  0.00138054  5078.74  0.999883  0.000116722  5497.07  0.000107394  0.999893  
4  -0.0639114  0.0368992   -8.74175  0.890167  0.109833  15.9804  0.0149286  0.985071  34.7779  0.158555  0.841445  41.4624  0.0579224  0.942078  86.3075  0.922947  0.0770531  88.2098  0.93393  0.0660699  93.8193  0.94613  0.05387  103.2  0.87112  0.12888  107.118  0.949481  0.0505193  112.86  0.831537  0.168463  137.286  0.19051  0.80949  137.519  0.0959579  0.904042  137.939  0.118807  0.881193  225.56  0.0192137  0.980786  225.825  0.02088  0.97912  226.485  0.0200242  0.979976  240.471  0.0276245  0.972375  241.15  0.0276211  0.972379  241.491  0.0296974  0.970303  299.569  0.988759  0.0112406  299.663  0.986281  0.0137192  299.703  0.988793  0.0112073  302.208  0.96417  0.0358299  302.24  0.967366  0.0326343  302.325  0.965195  0.0348045  399.089  0.90334  0.09666  399.176  0.922906  0.0770939  400.08  0.898854  0.101146  400.609  0.959669  0.0403313  401.508  0.93576  0.06424  401.637  0.958484  0.0415163  430.296  0.101101  0.898899  430.36  0.105441  0.894559  430.373  0.105192  0.894808  444.663  0.0381658  0.961834  444.68  0.038073  0.961927  444.699  0.0390641  0.960936  533.871  0.00656962  0.99343  533.871  0.00657095  0.993429  534.119  0.00659314  0.993407  634.762  0.0204625  0.979537  634.772  0.0205331  0.979467  635.028  0.020616  0.979384  636.002  0.0184925  0.981507  636.012  0.018572  0.981428  636.304  0.0179608  0.982039  694.188  0.99417  0.00583035  694.196  0.994059  0.00594088  694.397  0.993957  0.00604272  696.254  0.973893  0.0261067  696.263  0.973748  0.0262515  696.659  0.974695  0.0253052  709.899  0.992686  0.00731357  709.907  0.992608  0.00739234  710.167  0.992872  0.00712822  711.638  0.98583  0.0141703  711.644  0.985784  0.0142157  712.114  0.986684  0.0133157  836.376  0.00915658  0.990843  836.378  0.00915212  0.990848  836.772  0.00856032  0.99144  901.934  0.943291  0.0567093  901.995  0.944557  0.0554432  902.073  0.946812  0.0531879  902.262  0.945121  0.054879  902.485  0.945977  0.0540232  902.667  0.946689  0.0533111  939.141  0.05694  0.94306  939.273  0.0569803  0.94302  939.633  0.0558365  0.944164  940.286  0.0528529  0.947147  940.456  0.0530855  0.946914  940.809  0.0518357  0.948164  1028.85  0.00388866  0.996111  1028.85  0.00388877  0.996111  1044.65  0.0047413  0.995259  1044.65  0.00474133  0.995259  1203.2  0.996856  0.00314403  1203.21  0.996859  0.00314094  1204.25  0.992644  0.0073558  1204.25  0.992671  0.00732864  1237.47  0.0168107  0.983189  1237.52  0.0171645  0.982835  1237.57  0.0177441  0.982256  1237.97  0.0167205  0.983279  1304.5  0.994667  0.00533298  1304.7  0.994863  0.0051368  1305.73  0.994551  0.00544926  1306.03  0.994796  0.00520363  1306.25  0.983321  0.0166791  1306.37  0.983064  0.0169363  1307.45  0.983829  0.0161706  1307.61  0.983861  0.0161393  1431.62  0.00677843  0.993222  1431.81  0.00676778  0.993232  1447.39  0.00480835  0.995192  1447.59  0.00479668  0.995203  1604.58  0.945171  0.0548289  1604.58  0.945212  0.0547881  1604.58  0.945252  0.0547476  1638.29  0.00237205  0.997628  1638.45  0.00237922  0.997621  1642.17  0.0548594  0.945141  1642.18  0.0548178  0.945182  1642.19  0.0547762  0.945224  1739.8  0.00355733  0.996443  1739.83  0.00338216  0.996618  1741.05  0.00359038  0.99641  1741.17  0.00323486  0.996765  1899.15  0.997841  0.0021592  1899.29  0.998126  0.00187384  1900.16  0.995556  0.00444447  1900.24  0.995798  0.00420164  1915.05  0.997555  0.00244517  1915.21  0.997922  0.00207781  1916  0.996649  0.00335135  1916.1  0.996915  0.00308472  2040.56  0.0160944  0.983906  2040.73  0.0160177  0.983982  2040.73  0.0160068  0.983993  2108.03  0.994477  0.00552347  2108.16  0.993774  0.00622559  2108.21  0.995192  0.00480808  2109.72  0.983847  0.0161531  2110  0.984187  0.0158131  2110.02  0.984204  0.0157959  2141.45  0.00443374  0.995566  2141.85  0.00373982  0.99626  2242.98  0.00462631  0.995374  2243.34  0.00479101  0.995209  2244.23  0.00447293  0.995527  2434.76  0.00146068  0.998539  2450.7  0.00160043  0.9984  2508.26  0.945742  0.054258  2508.39  0.945382  0.054618  2508.5  0.94575  0.0542502  2545.85  0.0548964  0.945104  2545.92  0.0540401  0.94596  2546.06  0.0543011  0.945699  2643.59  0.00334149  0.996659  2710.16  0.999131  0.000869319  2710.69  0.997581  0.00241934  2811.29  0.998074  0.00192564  2812.15  0.996763  0.00323695  3044.78  0.015624  0.984376  3045.64  0.00219247  0.997808  3112.28  0.995742  0.00425797  3113.79  0.984121  0.0158794  3247.24  0.00450831  0.995492  3346.02  0.000712498  0.999288  3447.19  0.00151803  0.998482  3714.49  0.999456  0.000543937  3714.9  0.998043  0.00195713  3748.23  0.00301012  0.99699  3915.77  0.998525  0.00147468  3916.45  0.996989  0.00301124  4150.35  0.00181674  0.998183  4450.74  0.000463018  0.999537  4652.05  0.00113948  0.998861  4919.78  0.999878  0.000121848  4920.03  0.998562  0.0014383  5756.43  0.000103144  0.999897  
5  -0.0639114  0   -5.63315  0.5  0.5  7.79761  0.5  0.5  44.7692  0.5  0.5  55.1391  0.5  0.5  59.6457  0.5  0.5  67.8973  0.5  0.5  99.4578  0.5  0.5  101.233  0.5  0.5  118.225  0.5  0.5  118.296  0.5  0.5  151.269  0.5  0.5  151.68  0.5  0.5  165.741  0.5  0.5  165.932  0.5  0.5  210.995  0.5  0.5  211.022  0.5  0.5  255.733  0.5  0.5  255.771  0.5  0.5  259.237  0.5  0.5  259.267  0.5  0.5  309.005  0.5  0.5  309.06  0.5  0.5  310.163  0.5  0.5  310.221  0.5  0.5  359.87  0.5  0.5  359.877  0.5  0.5  360.62  0.5  0.5  360.625  0.5  0.5  403.269  0.5  0.5  403.269  0.5  0.5  408.41  0.5  0.5  408.411  0.5  0.5  419.725  0.5  0.5  419.726  0.5  0.5  508.983  0.5  0.5  508.984  0.5  0.5  510.288  0.5  0.5  510.288  0.5  0.5  554.624  0.5  0.5  554.624  0.5  0.5  569.688  0.5  0.5  569.688  0.5  0.5  608.733  0.5  0.5  608.791  0.5  0.5  608.967  0.5  0.5  609.026  0.5  0.5  660.298  0.5  0.5  660.558  0.5  0.5  662.387  0.5  0.5  662.649  0.5  0.5  758.902  0.5  0.5  758.959  0.5  0.5  759.236  0.5  0.5  759.291  0.5  0.5  762.369  0.5  0.5  762.444  0.5  0.5  762.716  0.5  0.5  762.794  0.5  0.5  814.151  0.5  0.5  814.155  0.5  0.5  814.579  0.5  0.5  814.583  0.5  0.5  853.155  0.500002  0.499998  853.155  0.499998  0.500002  868.916  0.500013  0.499987  868.916  0.499987  0.500013  903.956  0.5  0.5  904.621  0.5  0.5  920.911  0.5  0.5  921.497  0.5  0.5  1011.94  0.500596  0.499404  1011.94  0.499404  0.500596  1061.52  0.499923  0.500077  1061.52  0.500077  0.499923  1061.99  0.499983  0.500017  1061.99  0.500017  0.499983  1110.77  0.5  0.5  1110.77  0.5  0.5  1114.29  0.500007  0.499993  1114.29  0.499993  0.500007  1115.52  0.50001  0.49999  1115.52  0.49999  0.50001  1163.49  0.5  0.5  1163.49  0.5  0.5  1262.19  0.5  0.5  1263.71  0.5  0.5  1312.71  0.5  0.5  1312.71  0.5  0.5  1365.59  0.5  0.5  1365.65  0.5  0.5  1412.37  0.500135  0.499865  1412.37  0.499865  0.500135  1412.82  0.499999  0.500001  1412.82  0.500001  0.499999  1465.95  0.499998  0.500002  1465.95  0.500002  0.499998  1513.91  0.104109  0.895891  1513.91  0.895891  0.104109  1515.24  0.00419133  0.995809  1515.24  0.995809  0.00419133  1606.51  0.5  0.5  1623.5  0.5  0.5  1657.61  0.00839261  0.991607  1657.61  0.991607  0.00839261  1673.43  0.0325399  0.96746  1673.43  0.96746  0.0325399  1763.55  0.5  0.5  1763.55  0.5  0.5  1814.35  0.499953  0.500047  1814.35  0.500047  0.499953  1816.33  0.5  0.5  1816.33  0.5  0.5  1867.43  0.964796  0.0352041  1867.43  0.0352041  0.964796  1915.91  0.500013  0.499987  1915.91  0.499987  0.500013  2015.55  0.5  0.5  2015.55  0.5  0.5  2065.59  0.5  0.5  2066.78  0.5  0.5  2068.43  0.5  0.5  2068.44  0.5  0.5  2158.66  0.893464  0.106536  2158.66  0.106536  0.893464  2168.29  0.5  0.5  2168.32  0.5  0.5  2174.59  0.974587  0.0254129  2174.59  0.0254129  0.974587  2266.28  0.640334  0.359666  2266.28  0.359666  0.640334  2319.44  0.513058  0.486942  2319.44  0.486942  0.513058  2367.45  0.00555123  0.994449  2367.45  0.994449  0.00555123  2417.9  0.990073  0.00992706  2417.9  0.00992706  0.990073  2510.42  0.5  0.5  2519.37  0.994651  0.00534861  2519.37  0.00534861  0.994651  2527.39  0.5  0.5  2768.37  0.972413  0.0275875  2768.37  0.0275875  0.972413  2821.3  0.972032  0.0279682  2821.3  0.0279682  0.972032  3019.72  0.991407  0.00859293  3019.72  0.00859293  0.991407  3120.87  0.0021554  0.997845  3120.87  0.997845  0.0021554  3371.9  0.997916  0.00208444  3371.9  0.00208444  0.997916  3421.89  0.00349387  0.996506  3421.89  0.996506  0.00349387  3573.48  0.0081037  0.991896  3573.48  0.991896  0.0081037  4074.25  0.000573404  0.999427  4074.25  0.999427  0.000573404  4275.55  0.001291  0.998709  4275.55  0.998709  0.001291  4526.82  0.987348  0.0126522  4526.82  0.0126522  0.987348  5329.74  0.999877  0.000123475  5329.74  0.000123475  0.999877  
6  -0.0639114  -0.0368992   -8.74175  0.109833  0.890167  15.9804  0.985071  0.0149286  34.7779  0.841445  0.158555  41.4624  0.942078  0.0579224  86.3075  0.0770531  0.922947  88.2098  0.0660699  0.93393  93.8193  0.05387  0.94613  103.2  0.12888  0.87112  107.118  0.0505193  0.949481  112.86  0.168463  0.831537  137.286  0.80949  0.19051  137.519  0.904042  0.0959579  137.939  0.881193  0.118807  225.56  0.980786  0.0192137  225.825  0.97912  0.02088  226.485  0.979976  0.0200242  240.471  0.972375  0.0276245  241.15  0.972379  0.0276211  241.491  0.970303  0.0296974  299.569  0.0112406  0.988759  299.663  0.0137192  0.986281  299.703  0.0112073  0.988793  302.208  0.0358299  0.96417  302.24  0.0326343  0.967366  302.325  0.0348045  0.965195  399.089  0.09666  0.90334  399.176  0.0770939  0.922906  400.08  0.101146  0.898854  400.609  0.0403313  0.959669  401.508  0.06424  0.93576  401.637  0.0415163  0.958484  430.296  0.898899  0.101101  430.36  0.894559  0.105441  430.373  0.894808  0.105192  444.663  0.961834  0.0381658  444.68  0.961927  0.038073  444.699  0.960936  0.0390641  533.871  0.99343  0.00656962  533.871  0.993429  0.00657095  534.119  0.993407  0.00659314  634.762  0.979537  0.0204625  634.772  0.979467  0.0205331  635.028  0.979384  0.020616  636.002  0.981507  0.0184925  636.012  0.981428  0.018572  636.304  0.982039  0.0179608  694.188  0.00583035  0.99417  694.196  0.00594088  0.994059  694.397  0.00604272  0.993957  696.254  0.0261067  0.973893  696.263  0.0262515  0.973748  696.659  0.0253052  0.974695  709.899  0.00731357  0.992686  709.907  0.00739234  0.992608  710.167  0.00712822  0.992872  711.638  0.0141703  0.98583  711.644  0.0142157  0.985784  712.114  0.0133157  0.986684  836.376  0.990843  0.00915658  836.378  0.990848  0.00915212  836.772  0.99144  0.00856032  901.934  0.0567093  0.943291  901.995  0.0554432  0.944557  902.073  0.0531879  0.946812  902.262  0.054879  0.945121  902.485  0.0540232  0.945977  902.667  0.0533111  0.946689  939.141  0.94306  0.05694  939.273  0.94302  0.0569803  939.633  0.944164  0.0558365  940.286  0.947147  0.0528529  940.456  0.946914  0.0530855  940.809  0.948164  0.0518357  1028.85  0.996111  0.00388866  1028.85  0.996111  0.00388877  1044.65  0.995259  0.0047413  1044.65  0.995259  0.00474133  1203.2  0.00314403  0.996856  1203.21  0.00314094  0.996859  1204.25  0.0073558  0.992644  1204.25  0.00732864  0.992671  1237.47  0.983189  0.0168107  1237.52  0.982835  0.0171645  1237.57  0.982256  0.0177441  1237.97  0.983279  0.0167205  1304.5  0.00533298  0.994667  1304.7  0.0051368  0.994863  1305.73  0.00544926  0.994551  1306.03  0.00520363  0.994796  1306.25  0.0166791  0.983321  1306.37  0.0169363  0.983064  1307.45  0.0161706  0.983829  1307.61  0.0161393  0.983861  1431.62  0.993222  0.00677843  1431.81  0.993232  0.00676778  1447.39  0.995192  0.00480835  1447.59  0.995203  0.00479668  1604.58  0.0548289  0.945171  1604.58  0.0547881  0.945212  1604.58  0.0547476  0.945252  1638.29  0.997628  0.00237205  1638.45  0.997621  0.00237922  1642.17  0.945141  0.0548594  1642.18  0.945182  0.0548178  1642.19  0.945224  0.0547762  1739.8  0.996443  0.00355733  1739.83  0.996618  0.00338216  1741.05  0.99641  0.00359038  1741.17  0.996765  0.00323486  1899.15  0.0021592  0.997841  1899.29  0.00187384  0.998126  1900.16  0.00444447  0.995556  1900.24  0.00420164  0.995798  1915.05  0.00244517  0.997555  1915.21  0.00207781  0.997922  1916  0.00335135  0.996649  1916.1  0.00308472  0.996915  2040.56  0.983906  0.0160944  2040.73  0.983982  0.0160177  2040.73  0.983993  0.0160068  2108.03  0.00552347  0.994477  2108.16  0.00622559  0.993774  2108.21  0.00480808  0.995192  2109.72  0.0161531  0.983847  2110  0.0158131  0.984187  2110.02  0.0157959  0.984204  2141.45  0.995566  0.00443374  2141.85  0.99626  0.00373982  2242.98  0.995374  0.00462631  2243.34  0.995209  0.00479101  2244.23  0.995527  0.00447293  2434.76  0.998539  0.00146068  2450.7  0.9984  0.00160043  2508.26  0.054258  0.945742  2508.39  0.054618  0.945382  2508.5  0.0542502  0.94575  2545.85  0.945104  0.0548964  2545.92  0.94596  0.0540401  2546.06  0.945699  0.0543011  2643.59  0.996659  0.00334149  2710.16  0.000869319  0.999131  2710.69  0.00241934  0.997581  2811.29  0.00192564  0.998074  2812.15  0.00323695  0.996763  3044.78  0.984376  0.015624  3045.64  0.997808  0.00219247  3112.28  0.00425797  0.995742  3113.79  0.0158794  0.984121  3247.24  0.995492  0.00450831  3346.02  0.999288  0.000712498  3447.19  0.998482  0.00151803  3714.49  0.000543937  0.999456  3714.9  0.00195713  0.998043  3748.23  0.99699  0.00301012  3915.77  0.00147468  0.998525  3916.45  0.00301124  0.996989  4150.35  0.998183  0.00181674  4450.74  0.999537  0.000463018  4652.05  0.998861  0.00113948  4919.78  0.000121848  0.999878  4920.03  0.0014383  0.998562  5756.43  0.999897  0.000103144  
7  -0.0213038  -0.0368992   -3.28721  0.5  0.5  9.88896  0.5  0.5  34.867  0.5  0.5  48.4375  0.5  0.5  70.3832  0.5  0.5  74.1263  0.5  0.5  81.1769  0.5  0.5  89.7436  0.5  0.5  135.432  0.5  0.5  143.189  0.5  0.5  143.275  0.5  0.5  153.121  0.5  0.5  179.334  0.5  0.5  179.881  0.5  0.5  208.416  0.5  0.5  212.25  0.5  0.5  214.068  0.499999  0.500001  214.177  0.500001  0.499999  278.229  0.499999  0.500001  278.342  0.500001  0.499999  308.363  0.499976  0.500024  311.44  0.500024  0.499976  312.274  0.5  0.5  313.683  0.5  0.5  340.202  0.5  0.5  346.499  0.49939  0.50061  346.647  0.50061  0.49939  356.015  0.5  0.5  411.013  0.508035  0.491965  411.02  0.491965  0.508035  412.911  0.500133  0.499867  413.38  0.499867  0.500133  472.48  0.499998  0.500002  479.546  0.823583  0.176417  479.547  0.176417  0.823583  489.18  0.500002  0.499998  543.377  0.501079  0.498921  543.38  0.498953  0.501047  544.063  0.499959  0.500041  544.182  0.500029  0.499971  548.097  0.466138  0.533862  548.097  0.53384  0.46616  579.925  0.5  0.5  582.103  0.5  0.5  583.842  0.0569357  0.943064  583.842  0.943065  0.0569348  678.727  0.0107414  0.989259  678.954  0.989234  0.0107657  680.128  0.500007  0.499993  680.288  0.499993  0.500007  712.557  0.435463  0.564537  712.558  0.564538  0.435462  746.632  0.439398  0.560602  748.628  0.560706  0.439294  750.367  0.518392  0.481608  750.372  0.481608  0.518392  806.427  0.5  0.5  813.678  0.0207413  0.979259  813.931  0.979466  0.0205344  823.364  0.5  0.5  845.293  0.995356  0.00464366  845.497  0.00468583  0.995314  846.859  0.966658  0.0333418  847.262  0.0326961  0.967304  882.315  0.993854  0.00614639  882.543  0.00606631  0.993934  884.076  0.983561  0.0164386  884.49  0.0157175  0.984282  1007.44  0.504545  0.495455  1013.14  0.485652  0.514348  1013.34  0.799183  0.200817  1013.42  0.0403723  0.959628  1013.51  0.651552  0.348448  1015.93  0.469465  0.530535  1016.24  0.554127  0.445873  1024.37  0.494901  0.505099  1082.29  0.0146672  0.985333  1082.29  0.985318  0.0146816  1084.04  0.016732  0.983268  1084.41  0.983877  0.0161229  1113.86  0.945121  0.0548788  1114.45  0.0540184  0.945982  1147.86  0.500014  0.499986  1149.46  0.499986  0.500014  1151.51  0.0548986  0.945101  1152.07  0.945848  0.0541517  1213.44  0.00325415  0.996746  1214.65  0.559759  0.440241  1214.65  0.440241  0.559759  1250.52  0.00409568  0.995904  1251.79  0.500004  0.499996  1251.86  0.499996  0.500004  1348.05  0.0548364  0.945164  1348.45  0.945364  0.0546365  1383.27  0.00906173  0.990938  1385.67  0.945126  0.0548743  1385.92  0.055155  0.944845  1415.18  0.997251  0.00274921  1416.09  0.993383  0.00661745  1475.45  0.5  0.5  1482.86  0.0191337  0.980866  1484.14  0.996172  0.0038275  1485.57  0.989214  0.0107859  1492.44  0.5  0.5  1550.58  0.994849  0.00515129  1552.11  0.983581  0.016419  1648.53  0.997568  0.00243188  1648.68  0.00244854  0.997551  1649.82  0.00445705  0.995543  1685.63  0.997022  0.00297755  1685.8  0.00295097  0.997049  1687  0.00467868  0.995321  1750.73  0.983873  0.0161265  1818.21  0.0051133  0.994887  1818.47  0.995328  0.00467202  1820.05  0.0158823  0.984118  1883.55  0.223409  0.776591  1883.65  0.724399  0.275601  1884.46  0.0043441  0.995656  1884.74  0.995916  0.00408411  1917.7  0.566653  0.433347  1918.95  0.433317  0.566683  1921.32  0.0540254  0.945975  1953.04  0.00216952  0.99783  1953.87  0.99534  0.00465956  1953.88  0.00492894  0.995071  2019.02  0.00345225  0.996548  2020.27  0.0120178  0.987982  2020.56  0.988271  0.0117286  2151.83  0.996698  0.00330242  2185.04  0.0542413  0.945759  2188.59  0.996587  0.00341332  2222.6  0.945695  0.0543047  2345.72  0.496668  0.503332  2353.22  0.0156803  0.98432  2362.7  0.503592  0.496408  2419.06  0.99833  0.00166992  2422.23  0.983983  0.0160169  2488.52  0.998398  0.00160171  2554.54  0.997526  0.00247384  2720.09  0.00102916  0.998971  2720.66  0.00245942  0.997541  2756.67  0.00167529  0.998325  2757.43  0.00250698  0.997493  2888.99  0.992741  0.0072585  2989.72  0.00331681  0.996683  2990.8  0.00755508  0.992445  3023.17  0.997475  0.00252495  3158.06  0.996855  0.00314538  3355.95  0.999167  0.000832862  3392.56  0.998649  0.00135097  3625.63  0.997916  0.00208373  3692  0.000609919  0.99939  3692.44  0.00171489  0.998285  3826.72  0.0011678  0.998832  3827.31  0.00228091  0.997719  4094.55  0.998424  0.001576  4428.26  0.999485  0.000515436  4563  0.999071  0.000928813  4864.01  0.000121849  0.999878  4864.23  0.00128014  0.99872  5700.65  0.999897  0.000103144  
8  0.0213038  -0.0368992   -3.28721  0.5  0.5  9.88896  0.5  0.5  34.867  0.5  0.5  48.4375  0.5  0.5  70.3832  0.5  0.5  74.1263  0.5  0.5  81.1769  0.5  0.5  89.7436  0.5  0.5  135.432  0.5  0.5  143.189  0.5  0.5  143.275  0.5  0.5  153.121  0.5  0.5  179.334  0.5  0.5  179.881  0.5  0.5  208.416  0.5  0.5  212.25  0.5  0.5  214.068  0.5  0.5  214.177  0.5  0.5  278.229  0.500001  0.499999  278.342  0.499999  0.500001  308.363  0.5  0.5  311.44  0.5  0.5  312.274  0.5  0.5  313.683  0.5  0.5  340.202  0.5  0.5  346.499  0.5  0.5  346.647  0.5  0.5  356.015  0.5  0.5  411.013  0.492162  0.507838  411.02  0.507838  0.492162  412.91  0.499998  0.500002  413.38  0.500003  0.499997  472.48  0.5  0.5  479.546  0.176379  0.823621  479.547  0.823621  0.176379  489.18  0.5  0.5  543.377  0.499475  0.500525  543.38  0.500518  0.499482  544.064  0.500332  0.499668  544.182  0.49967  0.50033  548.097  0.52389  0.47611  548.097  0.476115  0.523885  579.925  0.500021  0.499979  582.104  0.499979  0.500021  583.842  0.899035  0.100965  583.842  0.100964  0.899036  678.711  0.499069  0.500931  678.744  0.500931  0.499069  680.128  0.499767  0.500233  680.288  0.500233  0.499767  712.557  0.609869  0.390131  712.558  0.39013  0.60987  746.516  0.499982  0.500018  748.496  0.500018  0.499982  750.367  0.474098  0.525902  750.372  0.525903  0.474097  806.427  0.500001  0.499999  813.678  0.632168  0.367832  813.678  0.36783  0.63217  823.365  0.499999  0.500001  845.293  0.0046437  0.995356  845.497  0.995317  0.0046834  846.812  0.50013  0.49987  846.921  0.499869  0.500131  882.315  0.0061464  0.993854  882.54  0.99395  0.00604966  884.074  0.343035  0.656965  884.081  0.656955  0.343045  1007.08  0.499999  0.500001  1013.14  0.514358  0.485642  1013.41  0.480692  0.519308  1013.42  0.938501  0.061499  1013.63  0.0895936  0.910406  1015.93  0.530535  0.469465  1016.24  0.445985  0.554015  1024.05  0.500001  0.499999  1082.29  0.994342  0.00565827  1082.49  0.00561705  0.994383  1084.04  0.983268  0.016732  1084.41  0.0161322  0.983868  1113.86  0.0548784  0.945122  1114.1  0.945701  0.0542988  1147.96  0.563046  0.436954  1149.57  0.436893  0.563107  1151.51  0.945102  0.0548984  1151.88  0.0538589  0.946141  1213.44  0.0034443  0.996556  1213.61  0.99653  0.00346967  1214.65  0.0075086  0.992491  1214.98  0.992903  0.00709694  1250.52  0.00409655  0.995903  1250.71  0.995949  0.0040513  1251.82  0.0160134  0.983987  1252.18  0.984434  0.0155657  1348.05  0.945164  0.0548364  1348.6  0.0541263  0.945874  1382.18  0.43571  0.56429  1383.65  0.564347  0.435653  1385.67  0.0548744  0.945126  1386.19  0.945746  0.0542544  1415.18  0.0027492  0.997251  1416.09  0.9934  0.00659959  1416.4  0.00624384  0.993756  1475.76  0.49604  0.50396  1483.05  0.980518  0.0194817  1483.26  0.0207599  0.97924  1484.14  0.00385232  0.996148  1485.26  0.98054  0.0194601  1485.59  0.017286  0.982714  1492.72  0.504355  0.495645  1550.58  0.00516224  0.994838  1552.37  0.983652  0.0163475  1552.44  0.0159709  0.984029  1648.52  0.997568  0.00243167  1649.82  0.995543  0.00445705  1685.63  0.997073  0.00292675  1687  0.995321  0.00467867  1743.42  0.503725  0.496275  1750.73  0.016127  0.983873  1760.39  0.495935  0.504065  1818.05  0.994859  0.00514065  1820.05  0.984123  0.0158772  1883.57  0.00210444  0.997896  1883.9  0.0542237  0.945776  1884.46  0.00432578  0.995674  1918.62  0.99214  0.00785967  1921.47  0.945696  0.0543036  1952.54  0.00271833  0.997282  1953.58  0.0049351  0.995065  2019.45  0.00297915  0.997021  2020.53  0.00784095  0.992159  2151.41  0.996611  0.00338919  2184.92  0.945364  0.054636  2188.89  0.996567  0.00343303  2219.75  0.00740955  0.99259  2222.38  0.0549563  0.945044  2321.61  0.992274  0.00772632  2419.06  0.99833  0.00167023  2488.05  0.997943  0.00205697  2554.95  0.997918  0.00208226  2719.51  0.00150735  0.998493  2720.25  0.00278747  0.997213  2755.34  0.990996  0.00900406  2757.12  0.00128287  0.998717  2757.74  0.00696254  0.993037  2889.51  0.00205957  0.99794  2890.35  0.00458401  0.995416  3022.7  0.99793  0.00207026  3091.54  0.997571  0.00242915  3355.39  0.998765  0.00123484  3393  0.998985  0.00101544  3525.4  0.99848  0.00152022  3691.52  0.000694767  0.999305  3691.97  0.00163949  0.998361  3760.29  0.00095716  0.999043  3760.8  0.0018595  0.998141  4061.07  0.99855  0.00145029  4427.78  0.999418  0.000581538  4496.55  0.999222  0.000777988  4830.54  0.000121849  0.999878  4830.75  0.00119547  0.998805  5667.18  0.999897  0.000103144  
9  0.0639114  -0.0368992   -8.74175  0.109833  0.890167  15.9804  0.985071  0.0149286  34.7779  0.841445  0.158555  41.4624  0.942078  0.0579224  86.3075  0.0770531  0.922947  88.2098  0.0660699  0.93393  93.8193  0.05387  0.94613  103.2  0.12888  0.87112  107.118  0.0505193  0.949481  112.86  0.168463  0.831537  137.286  0.80949  0.19051  137.519  0.904042  0.0959579  137.939  0.881193  0.118807  225.559  0.980786  0.0192135  225.825  0.97912  0.0208798  226.485  0.979976  0.020024  240.471  0.972375  0.0276247  241.15  0.972379  0.0276212  241.491  0.970302  0.0296976  299.569  0.0112406  0.988759  299.663  0.0137192  0.986281  299.703  0.0112072  0.988793  302.208  0.0358302  0.96417  302.24  0.0326345  0.967365  302.325  0.0348048  0.965195  399.089  0.0966601  0.90334  399.176  0.0770931  0.922907  400.08  0.101148  0.898852  400.609  0.0403318  0.959668  401.508  0.0642425  0.935757  401.637  0.0415176  0.958482  430.296  0.898899  0.101101  430.36  0.894558  0.105442  430.373  0.894807  0.105193  444.663  0.961834  0.0381663  444.68  0.961927  0.0380734  444.699  0.960935  0.0390649  533.871  0.99343  0.00656959  533.871  0.99343  0.00656958  533.871  0.993428  0.00657172  634.762  0.979598  0.0204019  634.762  0.979475  0.020525  634.777  0.979427  0.0205728  635.997  0.981542  0.0184578  636.012  0.981482  0.0185179  636.012  0.981374  0.0186263  694.185  0.00582642  0.994174  694.192  0.00578003  0.99422  694.197  0.00604629  0.993954  696.252  0.0259788  0.974021  696.257  0.0262996  0.9737  696.267  0.0262598  0.97374  709.895  0.007271  0.992729  709.906  0.00747998  0.99252  709.907  0.007305  0.992695  711.637  0.0142253  0.985775  711.638  0.0141035  0.985896  711.647  0.014247  0.985753  836.376  0.990843  0.00915662  836.376  0.990844  0.0091565  836.376  0.990844  0.00915637  901.928  0.056749  0.943251  901.929  0.0566606  0.943339  901.947  0.0567767  0.943223  902.061  0.0531242  0.946876  902.079  0.0532368  0.946763  902.08  0.0531474  0.946853  939.141  0.943076  0.0569243  939.141  0.943068  0.0569318  939.142  0.943037  0.0569633  940.286  0.947168  0.0528317  940.286  0.94714  0.0528598  940.286  0.947134  0.0528664  1028.85  0.996111  0.00388864  1029.03  0.996024  0.00397609  1029.03  0.996024  0.00397609  1044.65  0.995259  0.00474131  1044.87  0.995375  0.00462527  1044.87  0.995375  0.00462527  1203.2  0.00314378  0.996856  1203.38  0.00315448  0.996846  1203.38  0.00315383  0.996846  1204.25  0.0073557  0.992644  1204.59  0.00696506  0.993035  1204.59  0.00696461  0.993035  1237.47  0.98319  0.0168099  1237.57  0.982257  0.0177432  1237.68  0.98331  0.0166898  1237.68  0.98331  0.0166904  1237.79  0.982354  0.0176461  1237.79  0.982353  0.0176467  1304.5  0.00534288  0.994657  1304.68  0.00533725  0.994663  1304.69  0.00535679  0.994643  1305.73  0.00540749  0.994593  1305.91  0.00562454  0.994375  1305.93  0.00532965  0.99467  1306.25  0.0167049  0.983295  1306.59  0.0164809  0.983519  1306.59  0.0164971  0.983503  1307.45  0.0161769  0.983823  1307.8  0.015644  0.984356  1307.8  0.0156564  0.984344  1431.62  0.993222  0.00677842  1431.92  0.993562  0.00643798  1431.92  0.993562  0.00643798  1447.39  0.995192  0.00480834  1447.73  0.995569  0.00443138  1447.73  0.995569  0.00443138  1604.79  0.0543123  0.945688  1604.79  0.0543176  0.945682  1604.95  0.0546952  0.945305  1604.95  0.0546131  0.945387  1605.09  0.0541897  0.94581  1605.09  0.0541897  0.94581  1638.29  0.997627  0.00237266  1642.4  0.944866  0.0551337  1642.42  0.94495  0.0550501  1642.5  0.945987  0.0540131  1642.5  0.945983  0.0540173  1642.66  0.945716  0.0542842  1642.66  0.945716  0.0542842  1739.64  0.99645  0.00355032  1740.88  0.996368  0.00363221  1899.01  0.00212389  0.997876  1899.97  0.00445486  0.995545  1914.89  0.00248778  0.997512  1915.8  0.00336457  0.996635  2040.91  0.984276  0.015724  2040.91  0.984287  0.015713  2108.39  0.00589765  0.994102  2108.44  0.00443712  0.995563  2109.93  0.0161157  0.983884  2109.95  0.0160999  0.9839  2141.19  0.995292  0.00470763  2242.99  0.995138  0.00486248  2244.23  0.995284  0.00471575  2434.49  0.998327  0.0016728  2450.39  0.998071  0.00192917  2643.95  0.996903  0.00309695  2643.98  0.9971  0.00290018  2709.26  0.00149603  0.998504  2710.02  0.00265247  0.997348  2811.09  0.00155175  0.998448  2811.79  0.00327673  0.996723  2812.34  0.00157784  0.998422  2813.03  0.00319111  0.996809  3038  0.997638  0.00236156  3053.91  0.998086  0.00191385  3345.14  0.998769  0.00123083  3446.97  0.998806  0.00119372  3448.22  0.998786  0.00121434  3706.76  0.000791248  0.999209  3707.26  0.00184018  0.99816  3722.73  0.000821487  0.999179  3723.19  0.00152728  0.998473  4049.91  0.998589  0.00141113  4443.02  0.999345  0.000655284  4459  0.999322  0.000677532  4819.38  0.000121849  0.999878  4819.6  0.00116877  0.998831  5656.03  0.999897  0.000103144  
