#index kx_value ky_value E0(k) Overlap_bottom Overlap_top E1(k) Overlap_bottom Overlap_top  E2(k) .....
0  0.0455884  -0.0263205   -13.3686  0.811629  0.188371  -2.72366  0.0293283  0.970672  13.7988  0.412593  0.587407  18.4231  0.219508  0.780492  36.5548  0.866284  0.133716  42.133  0.665724  0.334276  44.5675  0.800326  0.199674  52.4673  0.705638  0.294362  54.205  0.813701  0.186299  57.3979  0.562594  0.437406  74.3815  0.244793  0.755207  74.8354  0.268827  0.731173  76.3537  0.511789  0.488211  110.826  0.0724802  0.92752  110.84  0.0829456  0.917054  111.817  0.0759658  0.924034  122.853  0.11245  0.88755  123.899  0.131194  0.868806  124.366  0.136681  0.863319  150.546  0.949699  0.0503007  150.606  0.959086  0.0409136  151.181  0.936533  0.063467  155.35  0.869402  0.130598  155.86  0.869193  0.130807  155.944  0.846019  0.153981  198.931  0.699703  0.300297  199.778  0.734748  0.265252  200.254  0.663606  0.336394  203.042  0.91072  0.0892795  203.391  0.8291  0.1709  204.482  0.887315  0.112685  220.426  0.322316  0.677684  220.655  0.338496  0.661504  220.849  0.351227  0.648773  231.581  0.0901438  0.909856  231.682  0.0924258  0.907574  231.715  0.0949641  0.905036  269.665  0.0267683  0.973232  269.67  0.0268527  0.973147  270.125  0.0270589  0.972941  321.115  0.0929306  0.907069  321.127  0.0943302  0.90567  321.625  0.0929966  0.907003  323.395  0.0678698  0.93213  323.404  0.0690167  0.930983  324.107  0.0641106  0.935889  348.73  0.977917  0.0220828  348.782  0.975344  0.0246561  349.119  0.975257  0.024743  353.093  0.882148  0.117852  353.163  0.879118  0.120882  353.784  0.885845  0.114155  363.615  0.967467  0.0325329  363.656  0.966177  0.0338232  364.21  0.968602  0.0313981  366.856  0.957336  0.0426636  366.881  0.956825  0.0431752  367.807  0.961889  0.0381111  425.135  0.0404351  0.959565  425.152  0.040222  0.959778  425.858  0.0375408  0.962459  456.845  0.842009  0.157991  457.097  0.845814  0.154186  457.59  0.861791  0.138209  457.682  0.850618  0.149382  458.297  0.859452  0.140548  458.744  0.864647  0.135353  480.463  0.158437  0.841563  480.717  0.158867  0.841133  481.359  0.152572  0.847428  482.261  0.131837  0.868163  482.599  0.134186  0.865814  483.285  0.126222  0.873778  518.908  0.0146265  0.985373  518.909  0.0146354  0.985365  534.123  0.0205277  0.979472  534.125  0.0205304  0.97947  610.058  0.987734  0.0122659  610.074  0.987927  0.0120732  611.76  0.955855  0.0441452  611.784  0.956985  0.0430154  628.48  0.0599814  0.940019  628.713  0.0627201  0.93728  629.167  0.0737857  0.926214  629.834  0.0664742  0.933526  662.746  0.978238  0.0217617  663.119  0.978926  0.0210736  664.934  0.977548  0.0224516  665.529  0.978954  0.0210455  666.163  0.940085  0.0599155  666.369  0.93983  0.0601702  668.209  0.948048  0.0519516  668.502  0.948393  0.0516067  725.549  0.0307217  0.969278  725.908  0.0305883  0.969412  740.665  0.0162731  0.983727  741.089  0.0160974  0.983903  814.268  0.852363  0.147637  814.281  0.85291  0.14709  814.294  0.853446  0.146554  831.456  0.0089621  0.991038  831.74  0.00908351  0.990916  838.374  0.1474  0.8526  838.409  0.146847  0.853153  838.444  0.146296  0.853704  884.575  0.0143814  0.985619  884.626  0.0136817  0.986318  886.893  0.0148462  0.985154  887.074  0.0135083  0.986492  961.841  0.992051  0.00794885  962.09  0.993058  0.00694163  963.872  0.98031  0.0196902  964.01  0.981289  0.0187112  977.456  0.989917  0.0100829  977.788  0.99151  0.00848981  979.283  0.988385  0.0116155  979.46  0.989411  0.0105886  1037.03  0.0554395  0.944561  1037.38  0.0546252  0.945375  1037.4  0.0544296  0.94557  1071.96  0.971712  0.0282878  1072.11  0.96086  0.0391396  1072.43  0.981903  0.0180967  1075.29  0.944404  0.0555965  1075.8  0.946355  0.0536451  1075.88  0.946738  0.0532624  1089.36  0.034262  0.965738  1089.96  0.0224415  0.977559  1142.29  0.0173552  0.982645  1142.93  0.0174547  0.982545  1144.59  0.0154291  0.984571  1234.53  0.00541933  0.994581  1250.29  0.00650038  0.9935  1274.23  0.855715  0.144285  1274.44  0.852032  0.147968  1274.7  0.854777  0.145223  1298.34  0.149074  0.850926  1298.46  0.143225  0.856775  1298.73  0.1454  0.8546  1344.67  0.0147265  0.985273  1378.06  0.996631  0.00336869  1379.17  0.988421  0.0115793  1430.55  0.992513  0.00748729  1432.19  0.988038  0.0119621  1548.33  0.0534766  0.946523  1549.89  0.0092204  0.99078  1583.45  0.983474  0.0165258  1586.27  0.94554  0.0544598  1653.64  0.0167428  0.983257  1701.58  0.00275734  0.997243  1754.14  0.00589156  0.994108  1889.54  0.99789  0.0021103  1890.3  0.98939  0.0106099  1907.17  0.0143537  0.985646  1992.64  0.994333  0.00566746  1993.98  0.98869  0.0113097  2112.47  0.00698376  0.993016  2264.14  0.00179405  0.998206  2367.3  0.0043862  0.995614  2503.53  0.99953  0.000469787  2504.01  0.994463  0.00553668  2929.19  0.000397783  0.999602  
1  0  0   -6.75705  0.5  0.5  -1.92591  0.5  0.5  2.50457  0.5  0.5  12.5648  0.5  0.5  29.5673  0.5  0.5  36.8547  0.5  0.5  58.8654  0.5  0.5  60.101  0.5  0.5  62.1287  0.5  0.5  66.1185  0.5  0.5  73.9783  0.5  0.5  74.9568  0.5  0.5  102.05  0.5  0.5  103.643  0.5  0.5  106.5  0.5  0.5  111.294  0.5  0.5  113.269  0.5  0.5  119.395  0.5  0.5  124.523  0.5  0.5  129.347  0.5  0.5  131.067  0.5  0.5  133.365  0.5  0.5  133.79  0.5  0.5  133.904  0.5  0.5  210.057  0.5  0.5  210.591  0.5  0.5  211.537  0.5  0.5  212.892  0.5  0.5  214.249  0.5  0.5  215.265  0.5  0.5  224.638  0.5  0.5  225.416  0.5  0.5  226.93  0.5  0.5  227.78  0.5  0.5  228.916  0.5  0.5  229.181  0.5  0.5  272.059  0.5  0.5  272.065  0.5  0.5  272.8  0.5  0.5  272.805  0.5  0.5  273.561  0.5  0.5  273.562  0.5  0.5  315.283  0.5  0.5  315.459  0.5  0.5  316.413  0.5  0.5  316.798  0.5  0.5  317.795  0.5  0.5  318.011  0.5  0.5  332.401  0.5  0.5  332.549  0.5  0.5  333.173  0.5  0.5  333.42  0.5  0.5  333.978  0.5  0.5  334.084  0.5  0.5  422.695  0.5  0.5  422.742  0.5  0.5  422.801  0.5  0.5  422.854  0.5  0.5  423.12  0.5  0.5  423.218  0.5  0.5  473.517  0.5  0.5  473.856  0.5  0.5  474.055  0.5  0.5  474.809  0.5  0.5  475.056  0.5  0.5  475.838  0.5  0.5  476.988  0.5  0.5  477.679  0.5  0.5  478.029  0.5  0.5  478.638  0.5  0.5  478.841  0.5  0.5  479.263  0.5  0.5  521.802  0.5  0.5  521.877  0.5  0.5  521.975  0.5  0.5  522.06  0.5  0.5  522.47  0.5  0.5  522.63  0.5  0.5  536.489  0.5  0.5  536.568  0.5  0.5  536.665  0.5  0.5  536.749  0.5  0.5  537.344  0.5  0.5  537.506  0.5  0.5  622.16  0.5  0.5  622.199  0.5  0.5  622.241  0.5  0.5  622.877  0.5  0.5  622.88  0.5  0.5  623.409  0.5  0.5  639.102  0.5  0.5  639.125  0.5  0.5  639.149  0.5  0.5  639.697  0.5  0.5  639.699  0.5  0.5  640.124  0.5  0.5  723.198  0.5  0.5  723.198  0.5  0.5  723.476  0.5  0.5  723.488  0.5  0.5  738.613  0.5  0.5  738.613  0.5  0.5  738.994  0.5  0.5  739.008  0.5  0.5  830.459  0.5  0.5  830.594  0.5  0.5  831.022  0.5  0.5  831.534  0.5  0.5  832.817  0.5  0.5  833.456  0.5  0.5  834.17  0.5  0.5  834.8  0.5  0.5  836.073  0.5  0.5  836.358  0.5  0.5  836.754  0.5  0.5  837.119  0.5  0.5  886.972  0.5  0.5  886.973  0.5  0.5  887.275  0.5  0.5  887.36  0.5  0.5  889.246  0.5  0.5  889.248  0.5  0.5  889.534  0.5  0.5  889.615  0.5  0.5  1031.11  0.5  0.5  1031.11  0.5  0.5  1031.52  0.5  0.5  1048.03  0.5  0.5  1048.03  0.5  0.5  1048.38  0.5  0.5  1086.9  0.0137145  0.986286  1086.9  0.986286  0.0137145  1140.13  0.954032  0.0459676  1140.13  0.0459676  0.954032  1142.59  0.0977727  0.902227  1142.59  0.902227  0.0977727  1236.04  0.982509  0.0174914  1236.04  0.0174914  0.982509  1251.59  0.989589  0.0104109  1251.59  0.0104109  0.989589  1293.7  0.0747014  0.925299  1293.7  0.925299  0.0747014  1347.49  0.51879  0.48121  1347.49  0.48121  0.51879  1541.04  0.0732359  0.926764  1541.04  0.926764  0.0732359  1556.84  0.256328  0.743672  1556.84  0.743672  0.256328  1651.99  0.991189  0.00881068  1651.99  0.00881068  0.991189  1702.55  0.876475  0.123525  1702.55  0.123525  0.876475  1756.08  0.786124  0.213876  1756.08  0.213876  0.786124  2059.17  0.290928  0.709072  2059.17  0.709072  0.290928  2112.55  0.993011  0.00698926  2112.55  0.00698926  0.993011  2265.61  0.0222611  0.977739  2265.61  0.977739  0.0222611  2673.79  0.999526  0.000473516  2673.79  0.000473516  0.999526  
2  -0.0455884  0.0263205   -13.3686  0.188371  0.811629  -2.72367  0.970672  0.0293283  13.7988  0.587407  0.412593  18.4231  0.780492  0.219508  36.5548  0.133716  0.866284  42.133  0.334276  0.665724  44.5675  0.199674  0.800326  52.4672  0.294362  0.705638  54.205  0.1863  0.8137  57.3979  0.437406  0.562594  74.3815  0.755207  0.244793  74.8354  0.731173  0.268827  76.3537  0.488211  0.511789  110.826  0.927532  0.0724685  110.84  0.917049  0.0829509  111.816  0.924038  0.0759619  122.852  0.887547  0.112453  123.898  0.868806  0.131194  124.366  0.863316  0.136684  150.546  0.0502993  0.949701  150.606  0.0409128  0.959087  151.181  0.0634646  0.936535  155.35  0.1306  0.8694  155.859  0.130809  0.869191  155.944  0.153982  0.846018  198.93  0.300297  0.699703  199.777  0.265258  0.734742  200.253  0.336409  0.663591  203.04  0.0892902  0.91071  203.39  0.170928  0.829072  204.481  0.112723  0.887277  220.425  0.677676  0.322324  220.654  0.661506  0.338494  220.848  0.648763  0.351237  231.58  0.909848  0.0901516  231.68  0.907561  0.0924388  231.714  0.905018  0.0949823  269.665  0.973231  0.0267694  269.665  0.973232  0.026768  269.673  0.973103  0.0268969  321.113  0.907584  0.0924161  321.116  0.906407  0.093593  321.133  0.904971  0.095029  323.391  0.93299  0.0670098  323.402  0.929779  0.0702207  323.406  0.931803  0.0681966  348.713  0.020857  0.979143  348.748  0.0239769  0.976023  348.803  0.0254601  0.97454  353.065  0.117125  0.882875  353.137  0.118767  0.881233  353.181  0.12262  0.87738  363.612  0.0318717  0.968128  363.613  0.0330787  0.966921  363.676  0.0345653  0.965435  366.842  0.042342  0.957658  366.874  0.0433572  0.956643  366.882  0.0429759  0.957024  425.134  0.959552  0.0404481  425.135  0.959574  0.040426  425.135  0.959572  0.0404281  456.825  0.157682  0.842318  456.835  0.158004  0.841996  456.886  0.158529  0.841471  457.561  0.137069  0.862931  457.611  0.13748  0.86252  457.621  0.137794  0.862206  480.464  0.841701  0.158299  480.464  0.841636  0.158364  480.466  0.841362  0.158638  482.261  0.868316  0.131684  482.263  0.868123  0.131877  482.263  0.868069  0.131931  518.907  0.985374  0.0146262  519.226  0.984821  0.0151793  519.226  0.98482  0.0151797  534.123  0.979472  0.020528  534.588  0.980412  0.0195883  534.588  0.980412  0.0195881  610.058  0.0122168  0.987783  610.391  0.0124721  0.987528  610.393  0.0123459  0.987654  611.76  0.0441048  0.955895  612.379  0.0430143  0.956986  612.379  0.0429212  0.957079  628.481  0.940049  0.0599512  628.932  0.941395  0.0586049  628.939  0.941366  0.0586337  629.168  0.926255  0.0737454  629.611  0.926844  0.0731556  629.618  0.926864  0.0731358  662.753  0.0219567  0.978043  663.097  0.0217484  0.978252  663.108  0.0221003  0.9779  664.956  0.0224892  0.977511  665.319  0.0222512  0.977749  665.379  0.0214383  0.978562  666.186  0.0597635  0.940237  666.773  0.0577838  0.942216  666.791  0.0580749  0.941925  668.214  0.0520444  0.947956  668.907  0.0487578  0.951242  668.911  0.0488925  0.951108  725.552  0.96928  0.0307202  726.096  0.970893  0.0291073  726.096  0.970893  0.0291073  740.668  0.983731  0.0162687  741.348  0.985479  0.0145205  741.348  0.985479  0.0145206  814.738  0.143754  0.856246  814.74  0.143533  0.856467  814.995  0.148133  0.851867  815.021  0.147042  0.852958  815.329  0.144077  0.855923  815.329  0.144077  0.855923  831.446  0.990973  0.00902739  838.838  0.850192  0.149808  838.907  0.851315  0.148685  839  0.857939  0.142061  839.002  0.857797  0.142203  839.341  0.855783  0.144217  839.341  0.855783  0.144217  884.263  0.985705  0.0142951  886.534  0.984571  0.0154286  961.587  0.00770997  0.99229  963.52  0.0198155  0.980184  977.123  0.0104186  0.989581  978.866  0.0118248  0.988175  1037.74  0.946257  0.0537431  1037.75  0.946463  0.0535373  1072.53  0.0401721  0.959828  1072.86  0.0167784  0.983222  1075.66  0.0551543  0.944846  1075.74  0.0548178  0.945182  1088.9  0.962597  0.0374029  1142.31  0.981603  0.0183966  1144.57  0.983429  0.0165713  1234.04  0.993926  0.00607372  1249.66  0.991998  0.00800204  1345.3  0.984487  0.0155131  1345.45  0.988715  0.0112854  1376.41  0.00560696  0.994393  1378  0.01504  0.98496  1430.17  0.00611294  0.993887  1431.54  0.012501  0.987499  1432.48  0.00650276  0.993497  1433.83  0.0114055  0.988595  1542.71  0.98991  0.0100905  1558.38  0.993256  0.00674434  1699.97  0.995387  0.00461258  1753.73  0.99532  0.00468008  1756.06  0.99501  0.00498992  1882.1  0.00298751  0.997012  1883.12  0.00777531  0.992225  1897.99  0.00324535  0.996755  1898.86  0.00543725  0.994563  2061.3  0.994557  0.00544283  2256.71  0.997521  0.00247863  2272.62  0.997328  0.00267199  2452.44  0.000469796  0.99953  2452.86  0.00450923  0.995491  2878.11  0.999602  0.000397788  
3  -0.0455884  -0.0263205   -13.3686  0.811629  0.188371  -2.72367  0.0293283  0.970672  13.7988  0.412593  0.587407  18.4231  0.219508  0.780492  36.5548  0.866284  0.133716  42.133  0.665724  0.334276  44.5675  0.800326  0.199674  52.4672  0.705638  0.294362  54.205  0.8137  0.1863  57.3979  0.562594  0.437406  74.3815  0.244793  0.755207  74.8354  0.268827  0.731173  76.3537  0.511789  0.488211  110.826  0.0724685  0.927532  110.84  0.0829509  0.917049  111.816  0.0759619  0.924038  122.852  0.112453  0.887547  123.898  0.131194  0.868806  124.366  0.136684  0.863316  150.546  0.949701  0.0502993  150.606  0.959087  0.0409128  151.181  0.936535  0.0634646  155.35  0.8694  0.1306  155.859  0.869191  0.130809  155.944  0.846018  0.153982  198.93  0.699703  0.300297  199.777  0.734742  0.265258  200.253  0.663591  0.336409  203.04  0.91071  0.0892902  203.39  0.829072  0.170928  204.481  0.887277  0.112723  220.425  0.322324  0.677676  220.654  0.338494  0.661506  220.848  0.351237  0.648763  231.58  0.0901516  0.909848  231.68  0.0924388  0.907561  231.714  0.0949823  0.905018  269.665  0.0267694  0.973231  269.665  0.026768  0.973232  269.673  0.0268969  0.973103  321.113  0.0924161  0.907584  321.116  0.093593  0.906407  321.133  0.095029  0.904971  323.391  0.0670098  0.93299  323.402  0.0702207  0.929779  323.406  0.0681966  0.931803  348.713  0.979143  0.020857  348.748  0.976023  0.0239769  348.803  0.97454  0.0254601  353.065  0.882875  0.117125  353.137  0.881233  0.118767  353.181  0.87738  0.12262  363.612  0.968128  0.0318717  363.613  0.966921  0.0330787  363.676  0.965435  0.0345653  366.842  0.957658  0.042342  366.874  0.956643  0.0433572  366.882  0.957024  0.0429759  425.134  0.0404481  0.959552  425.135  0.040426  0.959574  425.135  0.0404281  0.959572  456.825  0.842318  0.157682  456.835  0.841996  0.158004  456.886  0.841471  0.158529  457.561  0.862931  0.137069  457.611  0.86252  0.13748  457.621  0.862206  0.137794  480.464  0.158299  0.841701  480.464  0.158364  0.841636  480.466  0.158638  0.841362  482.261  0.131684  0.868316  482.263  0.131877  0.868123  482.263  0.131931  0.868069  518.907  0.0146262  0.985374  519.226  0.0151793  0.984821  519.226  0.0151797  0.98482  534.123  0.020528  0.979472  534.588  0.0195883  0.980412  534.588  0.0195881  0.980412  610.058  0.987783  0.0122168  610.391  0.987528  0.0124721  610.393  0.987654  0.0123459  611.76  0.955895  0.0441048  612.379  0.956986  0.0430143  612.379  0.957079  0.0429212  628.481  0.0599512  0.940049  628.932  0.0586049  0.941395  628.939  0.0586337  0.941366  629.168  0.0737454  0.926255  629.611  0.0731556  0.926844  629.618  0.0731358  0.926864  662.753  0.978043  0.0219567  663.097  0.978252  0.0217484  663.108  0.9779  0.0221003  664.956  0.977511  0.0224892  665.319  0.977749  0.0222512  665.379  0.978562  0.0214383  666.186  0.940237  0.0597635  666.773  0.942216  0.0577838  666.791  0.941925  0.0580749  668.214  0.947956  0.0520444  668.907  0.951242  0.0487578  668.911  0.951108  0.0488925  725.552  0.0307202  0.96928  726.096  0.0291073  0.970893  726.096  0.0291073  0.970893  740.668  0.0162687  0.983731  741.348  0.0145205  0.985479  741.348  0.0145206  0.985479  814.738  0.856246  0.143754  814.74  0.856467  0.143533  814.995  0.851867  0.148133  815.021  0.852958  0.147042  815.329  0.855923  0.144077  815.329  0.855923  0.144077  831.446  0.00902739  0.990973  838.838  0.149808  0.850192  838.907  0.148685  0.851315  839  0.142061  0.857939  839.002  0.142203  0.857797  839.341  0.144217  0.855783  839.341  0.144217  0.855783  884.263  0.0142951  0.985705  886.534  0.0154286  0.984571  961.587  0.99229  0.00770997  963.52  0.980184  0.0198155  977.123  0.989581  0.0104186  978.866  0.988175  0.0118248  1037.74  0.0537431  0.946257  1037.75  0.0535373  0.946463  1072.53  0.959828  0.0401721  1072.86  0.983222  0.0167784  1075.66  0.944846  0.0551543  1075.74  0.945182  0.0548178  1088.9  0.0374029  0.962597  1142.31  0.0183966  0.981603  1144.57  0.0165713  0.983429  1234.04  0.00607372  0.993926  1249.66  0.00800204  0.991998  1345.3  0.0155131  0.984487  1345.45  0.0112854  0.988715  1376.41  0.994393  0.00560696  1378  0.98496  0.01504  1430.17  0.993887  0.00611294  1431.54  0.987499  0.012501  1432.48  0.993497  0.00650276  1433.83  0.988595  0.0114055  1542.71  0.0100905  0.98991  1558.38  0.00674434  0.993256  1699.97  0.00461258  0.995387  1753.73  0.00468008  0.99532  1756.06  0.00498992  0.99501  1882.1  0.997012  0.00298751  1883.12  0.992225  0.00777531  1897.99  0.996755  0.00324535  1898.86  0.994563  0.00543725  2061.3  0.00544283  0.994557  2256.71  0.00247863  0.997521  2272.62  0.00267199  0.997328  2452.44  0.99953  0.000469796  2452.86  0.995491  0.00450923  2878.11  0.000397788  0.999602  
4  0.0151961  -0.0263205   -11.6185  0.5  0.5  -2.94903  0.5  0.5  8.16136  0.5  0.5  24.4052  0.5  0.5  32.003  0.5  0.5  34.2937  0.5  0.5  42.0838  0.5  0.5  52.9505  0.5  0.5  63.2295  0.5  0.5  70.5981  0.499999  0.500001  72.2245  0.500001  0.499999  80.8002  0.5  0.5  90.2247  0.499999  0.500001  93.277  0.500001  0.499999  101.841  0.5  0.5  108.645  0.5  0.5  112.106  0.500003  0.499997  112.52  0.499996  0.500004  139.822  0.500003  0.499997  140.455  0.499997  0.500003  152.234  0.500083  0.499917  157.718  0.499922  0.500078  158.145  0.499999  0.500001  162.318  0.5  0.5  173.702  0.5  0.5  176.061  0.500924  0.499076  176.734  0.499074  0.500926  187.018  0.5  0.5  207.039  0.494022  0.505978  207.1  0.505975  0.494025  210.244  0.499784  0.500216  211.794  0.500218  0.499782  238.255  0.500022  0.499978  243.289  0.31892  0.68108  243.291  0.68108  0.31892  254.201  0.499991  0.500009  272.993  0.501399  0.498601  273.074  0.498215  0.501785  273.854  0.50047  0.49953  274.399  0.499841  0.500159  281.005  0.53186  0.46814  281.008  0.468244  0.531756  294.411  0.5  0.5  298.167  0.5  0.5  301.178  0.871321  0.128679  301.181  0.128661  0.871339  343.085  0.925803  0.0741974  343.55  0.0744829  0.925517  345.334  0.499917  0.500083  345.861  0.500087  0.499913  361.382  0.511811  0.488189  361.419  0.488165  0.511835  378.616  0.565298  0.434702  382.292  0.433457  0.566543  385.247  0.491329  0.508671  385.299  0.508678  0.491322  407.036  0.5  0.5  412.679  0.903076  0.0969236  413.229  0.0943403  0.90566  423.782  0.5  0.5  427.102  0.0187101  0.98129  427.468  0.980758  0.0192417  430.545  0.136979  0.863021  431.302  0.866848  0.133152  449.849  0.0261899  0.97381  450.342  0.974664  0.0253363  453.119  0.0520723  0.947928  453.937  0.952107  0.0478933  509.623  0.4909  0.5091  512.771  0.572936  0.427064  513.102  0.218737  0.781263  513.456  0.897672  0.102328  513.697  0.326445  0.673555  518.021  0.538091  0.461909  518.604  0.445353  0.554647  526.363  0.511484  0.488516  550.777  0.888487  0.111513  550.79  0.111795  0.888205  554.078  0.942942  0.0570576  554.801  0.0533183  0.946682  564.834  0.147905  0.852095  566.079  0.856554  0.143446  582.31  0.499949  0.500051  585.325  0.50005  0.49995  588.966  0.854479  0.145521  590.045  0.141987  0.858013  614.353  0.987816  0.0121844  616.866  0.46546  0.53454  616.912  0.534547  0.465453  637.343  0.982607  0.0173927  639.692  0.498548  0.501452  639.909  0.501458  0.498542  683.845  0.853124  0.146876  684.634  0.147186  0.852814  703.608  0.951765  0.0482352  707.981  0.14636  0.85364  708.482  0.850979  0.149021  717.974  0.0105766  0.989423  719.953  0.0436  0.9564  746.941  0.499997  0.500003  753.382  0.933195  0.0668047  755.655  0.0162953  0.983705  758.39  0.0370012  0.962999  763.894  0.500001  0.499999  788.867  0.0211348  0.978865  791.807  0.0560251  0.943975  835.714  0.00897029  0.99103  835.994  0.990846  0.00915426  838.283  0.978412  0.0215879  858.827  0.0127553  0.987245  859.173  0.987556  0.0124437  861.45  0.984189  0.0158107  889.922  0.0551419  0.944858  924.886  0.977805  0.0221946  925.353  0.0207629  0.979237  928.422  0.946522  0.0534783  956.053  0.91574  0.0842599  956.577  0.220272  0.779728  957.826  0.973644  0.0263562  958.321  0.0252177  0.974782  974.401  0.432202  0.567798  976.776  0.568068  0.431932  980.78  0.85749  0.14251  994.732  0.99115  0.00884963  996.37  0.0200943  0.979906  996.381  0.97871  0.0212899  1027.09  0.985675  0.0143253  1029.51  0.957252  0.042748  1030.08  0.0412856  0.958714  1093.62  0.0150441  0.984956  1110.2  0.855027  0.144973  1116.2  0.0118438  0.988156  1134.22  0.145185  0.854815  1189.95  0.506534  0.493466  1196.57  0.946439  0.053561  1206.88  0.492349  0.507651  1228.57  0.0062507  0.993749  1234.52  0.0548022  0.945198  1267.22  0.00650671  0.993493  1299.66  0.0100685  0.989931  1381.67  0.995979  0.00402052  1382.88  0.989106  0.0108936  1404.11  0.993511  0.00648855  1405.52  0.991083  0.0089169  1469.56  0.0264594  0.973541  1521.17  0.981981  0.0180186  1523.34  0.972527  0.0274729  1538.38  0.0154198  0.98458  1608.35  0.011709  0.988291  1705.19  0.00326135  0.996739  1727.7  0.00520968  0.99479  1844.86  0.00924908  0.990751  1877.85  0.997639  0.00236076  1878.76  0.991905  0.00809518  1947.61  0.995499  0.00450128  1948.75  0.99145  0.00854995  2084.04  0.0060704  0.99393  2252.46  0.00199367  0.998006  2322.25  0.00358294  0.996417  2475.15  0.99953  0.000469792  2475.59  0.995066  0.00493431  2900.81  0.000397786  0.999602  
