#index kx_value ky_value E0(k) Overlap_bottom Overlap_top E1(k) Overlap_bottom Overlap_top  E2(k) .....
0  0.0287208  -0.016582   -31.3156  0.700175  0.299825  -23.4887  0.193426  0.806574  -15.9777  0.33421  0.66579  -10.6156  0.341425  0.658575  -6.0365  0.897954  0.102046  5.73682  0.498892  0.501108  13.7871  0.747005  0.252995  14.2187  0.797629  0.202371  25.9331  0.327067  0.672933  32.6759  0.684063  0.315937  35.8147  0.11801  0.88199  46.8345  0.199759  0.800241  52.256  0.133528  0.866472  56.1028  0.378592  0.621408  70.3018  0.180164  0.819836  72.351  0.689436  0.310564  75.8854  0.846166  0.153834  78.5847  0.793172  0.206828  86.4363  0.637918  0.362082  94.8378  0.770652  0.229348  101.079  0.3598  0.6402  101.446  0.849672  0.150328  106.587  0.656177  0.343823  108.252  0.360498  0.639502  114.889  0.427714  0.572286  126.236  0.681209  0.318791  132.57  0.41354  0.58646  134.198  0.27593  0.72407  136.816  0.332592  0.667408  143.807  0.502684  0.497316  152.057  0.610522  0.389478  155.976  0.577569  0.422431  161.498  0.29386  0.70614  163.351  0.162343  0.837657  169.416  0.401133  0.598867  171.919  0.588262  0.411738  180.529  0.378488  0.621512  192.825  0.658886  0.341114  193.996  0.373387  0.626613  200.024  0.223271  0.776729  203.653  0.47  0.53  205.06  0.501146  0.498854  210.207  0.778012  0.221988  218.29  0.422774  0.577226  219.102  0.39341  0.60659  231.173  0.64324  0.35676  233.85  0.675305  0.324695  238.245  0.662588  0.337412  241.082  0.393046  0.606954  244.196  0.544757  0.455243  250.499  0.712575  0.287425  256.281  0.42981  0.57019  260.507  0.492554  0.507446  262.401  0.756243  0.243757  265.682  0.563377  0.436623  272.515  0.543402  0.456598  279.68  0.724935  0.275065  282.232  0.531125  0.468875  291.599  0.463473  0.536527  297.92  0.721585  0.278415  299.104  0.629441  0.370559  304.925  0.29817  0.70183  306.971  0.480718  0.519282  318.153  0.454376  0.545624  322.344  0.523423  0.476577  322.566  0.532915  0.467085  327.679  0.226474  0.773526  336.916  0.256731  0.743269  337.321  0.245118  0.754882  343.847  0.552749  0.447251  346.365  0.501278  0.498722  356.51  0.377955  0.622045  357.729  0.458428  0.541572  371.036  0.229219  0.770781  371.405  0.215318  0.784682  375.898  0.211276  0.788724  376.538  0.264125  0.735875  380.142  0.882761  0.117239  385.669  0.147159  0.852841  400.605  0.746723  0.253277  401.583  0.795269  0.204731  413.086  0.452292  0.547708  417.979  0.286506  0.713494  420.368  0.141638  0.858362  430.215  0.728694  0.271306  430.486  0.723905  0.276095  434.479  0.705866  0.294134  440.831  0.664473  0.335527  442.024  0.559422  0.440578  443.722  0.539529  0.460471  451.686  0.591795  0.408205  453.817  0.720095  0.279905  455.752  0.842993  0.157007  464.208  0.432121  0.567879  470.61  0.774006  0.225994  471.028  0.803688  0.196312  474  0.431887  0.568113  475.769  0.447851  0.552149  485.996  0.767088  0.232912  486.668  0.723314  0.276686  495.205  0.0715723  0.928428  501.098  0.692288  0.307712  502.647  0.62307  0.37693  508.987  0.671186  0.328814  517.558  0.407533  0.592467  520.512  0.389046  0.610954  524.724  0.807872  0.192128  533.301  0.603801  0.396199  535.056  0.629428  0.370572  551.707  0.0971633  0.902837  551.956  0.114996  0.885004  554.081  0.0572877  0.942712  554.209  0.0617205  0.93828  559.898  0.366008  0.633992  561.141  0.310098  0.689902  574.319  0.716883  0.283117  574.388  0.717  0.283  599.684  0.143131  0.856869  599.814  0.137669  0.862331  602.978  0.329773  0.670227  603.477  0.18716  0.81284  604.338  0.352781  0.647219  607.199  0.648523  0.351477  617.021  0.947051  0.0529489  620.129  0.163361  0.836639  622.081  0.182023  0.817977  622.152  0.183415  0.816585  631.492  0.312241  0.687759  631.892  0.348753  0.651247  642.997  0.822032  0.177968  643.09  0.823474  0.176526  654.319  0.930935  0.0690653  667.92  0.0818484  0.918152  678.145  0.906767  0.0932329  678.34  0.919413  0.0805873  683.311  0.938138  0.0618624  683.886  0.946872  0.0531281  687.909  0.166987  0.833013  689.209  0.318463  0.681537  690.667  0.295735  0.704265  707.13  0.0982039  0.901796  711.243  0.854637  0.145363  717.003  0.763704  0.236296  719.224  0.737033  0.262967  720.306  0.729988  0.270012  721.613  0.604532  0.395468  728.061  0.4818  0.5182  730.062  0.688235  0.311765  730.967  0.80319  0.19681  731.627  0.857854  0.142146  749.123  0.970643  0.0293566  754.184  0.795398  0.204602  754.471  0.804695  0.195305  757.977  0.0919895  0.908011  771.204  0.552764  0.447236  772.607  0.409787  0.590213  773.022  0.0348426  0.965157  774.672  0.448547  0.551453  777.789  0.398293  0.601707  781.967  0.26201  0.73799  784.047  0.435123  0.564877  800.09  0.706894  0.293106  803.561  0.773947  0.226053  813.484  0.913453  0.086547  818.227  0.913185  0.0868152  826.199  0.0892456  0.910754  826.958  0.0388172  0.961183  827.494  0.038462  0.961538  828.695  0.0709612  0.929039  848.447  0.0428215  0.957179  849.244  0.636919  0.363081  849.545  0.640685  0.359315  854.536  0.0225192  0.977481  867.303  0.0564372  0.943563  869.986  0.0696244  0.930376  872.958  0.343345  0.656655  873.381  0.320622  0.679378  896.627  0.759918  0.240082  901.163  0.771502  0.228498  904.937  0.948051  0.0519489  916.093  0.124003  0.875997  919.995  0.158345  0.841655  924.499  0.200571  0.799429  928.399  0.189512  0.810488  932.692  0.856434  0.143566  933.841  0.831449  0.168551  945.785  0.11123  0.88877  946.828  0.706965  0.293035  949.063  0.0958631  0.904137  952.449  0.767805  0.232195  955.034  0.961439  0.0385607  966.309  0.334971  0.665029  969.737  0.231896  0.768104  975.28  0.950511  0.0494886  978.488  0.957935  0.0420648  980.853  0.968262  0.0317381  985.087  0.950771  0.0492295  1000.93  0.972451  0.0275488  1006.67  0.984567  0.0154326  1015.45  0.0538443  0.946156  1031.66  0.966537  0.0334628  1039.11  0.235905  0.764095  1043.03  0.253074  0.746926  1054.24  0.954379  0.0456208  1055.41  0.0214413  0.978559  1070.21  0.784474  0.215526  1072.17  0.760201  0.239799  1081.38  0.933281  0.0667188  1084.66  0.95273  0.0472699  1089.11  0.225184  0.774816  1092.92  0.146797  0.853203  1099.65  0.0461715  0.953829  1116.44  0.0387335  0.961267  1116.6  0.815312  0.184688  1117.34  0.834403  0.165597  1121.7  0.0249466  0.975053  1132.96  0.742923  0.257077  1138.55  0.20659  0.79341  1155.8  0.0240188  0.975981  1168.03  0.963717  0.0362834  1186.8  0.0313887  0.968611  1202.58  0.0284264  0.971574  1216.3  0.0379927  0.962007  1225.31  0.0363908  0.963609  1241.78  0.700801  0.299199  1248.22  0.767476  0.232524  1262.72  0.260947  0.739053  1265.31  0.232421  0.767579  1279.34  0.964527  0.0354727  1299.53  0.854543  0.145457  1302.86  0.0769886  0.923011  1317.71  0.955521  0.0444793  1323.6  0.177847  0.822153  1339.33  0.0293259  0.970674  1341.11  0.967656  0.0323444  1366.59  0.976939  0.0230606  1380.77  0.978926  0.0210736  1396.12  0.972759  0.027241  1429.33  0.970182  0.0298182  1457.93  0.960506  0.0394938  1471.68  0.0781932  0.921807  1472.77  0.0524808  0.947519  1502.84  0.907861  0.0921387  1518.63  0.0174844  0.982516  1539.07  0.015284  0.984716  1544.47  0.0128851  0.987115  1563.77  0.976026  0.0239739  1578.89  0.016811  0.983189  1620.2  0.0271159  0.972884  1627.46  0.0225495  0.97745  1656.26  0.0208013  0.979199  1679.64  0.969502  0.0304978  1725.7  0.985101  0.0148993  1750.19  0.991459  0.00854098  1751.52  0.987115  0.0128852  1762.08  0.0207046  0.979295  1797.83  0.987466  0.0125341  1823.49  0.989609  0.010391  1827.2  0.979595  0.0204048  1897.91  0.848602  0.151398  1902.51  0.155669  0.844331  1943.84  0.00986767  0.990132  1975.42  0.00734219  0.992658  1991.67  0.0104971  0.989503  2023.04  0.0106873  0.989313  2048.69  0.00859309  0.991407  2123.6  0.0252734  0.974727  2136.22  0.97076  0.0292395  2177.98  0.991834  0.00816568  2215.98  0.994717  0.0052832  2225.81  0.991184  0.00881645  2259.24  0.993521  0.00647861  2306.71  0.993095  0.00690475  2388.22  0.00945865  0.990541  2437.89  0.00562851  0.994371  2468.27  0.00471073  0.995289  2511.47  0.00567409  0.994326  2558.97  0.0058519  0.994148  2649.44  0.991879  0.00812079  2699.08  0.995026  0.00497352  2738.69  0.997311  0.00268912  2789.38  0.996352  0.00364847  2940.9  0.00418335  0.995817  3018.01  0.00244606  0.997554  3068.63  0.00325063  0.996749  3229.13  0.996252  0.00374809  3327.69  0.99971  0.000290309  3633.99  0.000266852  0.999733  
1  0  0   -30.1735  0.5  0.5  -21.7205  0.5  0.5  -15.9255  0.5  0.5  -13.9591  0.5  0.5  -10.6084  0.5  0.5  0.933155  0.5  0.5  15.3591  0.5  0.5  28.9459  0.5  0.5  31.2801  0.5  0.5  37.4299  0.5  0.5  40.3888  0.5  0.5  42.6164  0.5  0.5  51.0951  0.5  0.5  52.0763  0.5  0.5  59.005  0.5  0.5  62.0086  0.5  0.5  67.658  0.5  0.5  73.3722  0.5  0.5  80.69  0.5  0.5  98.1879  0.5  0.5  104.533  0.5  0.5  111.833  0.5  0.5  113.787  0.5  0.5  118.718  0.5  0.5  119.937  0.5  0.5  125.545  0.5  0.5  133.13  0.5  0.5  136.595  0.5  0.5  140.349  0.5  0.5  140.509  0.5  0.5  158.049  0.5  0.5  161.349  0.5  0.5  163.601  0.5  0.5  164.445  0.5  0.5  168.122  0.5  0.5  172.44  0.5  0.5  183.406  0.5  0.5  184.604  0.5  0.5  188.034  0.5  0.5  188.578  0.5  0.5  192.658  0.5  0.5  196.288  0.5  0.5  212.157  0.5  0.5  215.849  0.5  0.5  216.156  0.5  0.5  225.242  0.5  0.5  225.912  0.5  0.5  232.723  0.5  0.5  245.222  0.5  0.5  246.775  0.5  0.5  252.939  0.5  0.5  253.852  0.5  0.5  256.423  0.5  0.5  260.793  0.5  0.5  280.631  0.5  0.5  282.275  0.5  0.5  282.583  0.5  0.5  285.034  0.5  0.5  286.435  0.5  0.5  287.308  0.5  0.5  319.354  0.5  0.5  320.428  0.5  0.5  326.319  0.5  0.5  327.656  0.5  0.5  335.749  0.5  0.5  335.834  0.5  0.5  342.77  0.5  0.5  343.222  0.5  0.5  343.401  0.5  0.5  344.847  0.5  0.5  346.171  0.5  0.5  346.546  0.5  0.5  355.438  0.5  0.5  356.363  0.5  0.5  360.504  0.5  0.5  362.787  0.5  0.5  366.261  0.5  0.5  367.586  0.5  0.5  387.774  0.5  0.5  389.007  0.5  0.5  389.692  0.5  0.5  392.78  0.5  0.5  392.923  0.5  0.5  394.722  0.5  0.5  433.557  0.5  0.5  433.788  0.5  0.5  435.651  0.5  0.5  436.337  0.5  0.5  438.198  0.5  0.5  438.703  0.5  0.5  458.923  0.5  0.5  458.985  0.5  0.5  459.259  0.5  0.5  459.513  0.5  0.5  459.756  0.5  0.5  459.979  0.5  0.5  491.655  0.5  0.5  492.358  0.5  0.5  493.019  0.5  0.5  494.441  0.5  0.5  495.138  0.5  0.5  495.858  0.5  0.5  529.285  0.5  0.5  529.96  0.5  0.5  530.035  0.5  0.5  531.353  0.5  0.5  531.493  0.5  0.5  532.13  0.5  0.5  569.7  0.5  0.5  570.469  0.5  0.5  571.103  0.5  0.5  573.387  0.5  0.5  573.678  0.5  0.5  575.744  0.5  0.5  579.975  0.5  0.5  581.161  0.5  0.5  582.281  0.5  0.5  582.963  0.5  0.5  583.784  0.5  0.5  583.832  0.5  0.5  599.4  0.5  0.5  599.6  0.5  0.5  600.782  0.5  0.5  601.203  0.5  0.5  602.388  0.5  0.5  602.624  0.5  0.5  621.998  0.5  0.5  622.374  0.5  0.5  625.197  0.5  0.5  625.852  0.5  0.5  629.488  0.5  0.5  629.779  0.5  0.5  638.922  0.5  0.5  639.152  0.5  0.5  641.377  0.5  0.5  641.819  0.5  0.5  643.085  0.5  0.5  643.3  0.5  0.5  721.049  0.5  0.5  721.254  0.5  0.5  721.523  0.5  0.5  721.979  0.5  0.5  722.246  0.5  0.5  722.501  0.5  0.5  743.015  0.5  0.5  743.059  0.5  0.5  743.722  0.5  0.5  743.742  0.5  0.5  744.322  0.5  0.5  744.38  0.5  0.5  754.241  0.5  0.5  754.311  0.5  0.5  755.043  0.5  0.5  755.291  0.5  0.5  755.964  0.5  0.5  756.141  0.5  0.5  802.199  0.5  0.5  802.632  0.5  0.5  803.682  0.5  0.5  804.691  0.5  0.5  805.381  0.5  0.5  805.971  0.5  0.5  818.512  0.5  0.5  818.532  0.5  0.5  824.513  0.5  0.5  824.529  0.5  0.5  825.304  0.5  0.5  825.314  0.5  0.5  855.548  0.5  0.5  855.579  0.5  0.5  856.163  0.5  0.5  856.253  0.5  0.5  856.525  0.5  0.5  856.583  0.5  0.5  890.668  0.5  0.5  890.702  0.5  0.5  893.548  0.5  0.5  893.831  0.5  0.5  894.69  0.5  0.5  894.982  0.5  0.5  903.321  0.5  0.5  903.689  0.5  0.5  904.422  0.5  0.5  904.801  0.5  0.5  907.35  0.5  0.5  907.404  0.5  0.5  926.77  0.5  0.5  926.8  0.5  0.5  926.954  0.5  0.5  926.989  0.5  0.5  929.067  0.5  0.5  929.071  0.5  0.5  952.625  0.5  0.5  952.731  0.5  0.5  954.378  0.5  0.5  954.652  0.5  0.5  956.795  0.5  0.5  957.08  0.5  0.5  959.808  0.5  0.5  959.98  0.5  0.5  962.673  0.5  0.5  962.749  0.5  0.5  964.594  0.5  0.5  964.613  0.5  0.5  1068.33  0.499907  0.500093  1068.33  0.500093  0.499907  1087.86  0.5  0.5  1087.86  0.5  0.5  1089.25  0.5  0.5  1089.25  0.5  0.5  1094.78  0.5  0.5  1094.78  0.5  0.5  1105.61  0.5  0.5  1105.61  0.5  0.5  1106.83  0.5  0.5  1106.83  0.5  0.5  1109.28  0.5  0.5  1109.28  0.5  0.5  1109.76  0.5  0.5  1109.76  0.5  0.5  1168.62  0.499994  0.500006  1168.62  0.500006  0.499994  1171.23  0.499974  0.500026  1171.23  0.500026  0.499974  1187.79  0.500472  0.499528  1187.79  0.499528  0.500472  1235.41  0.494947  0.505053  1235.41  0.505053  0.494947  1251.45  0.496583  0.503417  1251.45  0.503417  0.496583  1313.04  0.50012  0.49988  1313.04  0.49988  0.50012  1313.08  0.500118  0.499882  1313.08  0.499882  0.500118  1352.35  0.499648  0.500352  1352.35  0.500352  0.499648  1352.59  0.499679  0.500321  1352.59  0.500321  0.499679  1437.56  0.486232  0.513768  1437.56  0.513768  0.486232  1487.23  0.426057  0.573943  1487.23  0.573943  0.426057  1503.55  0.697708  0.302292  1503.55  0.302292  0.697708  1574.8  0.482743  0.517257  1574.8  0.517257  0.482743  1602.48  0.398166  0.601834  1602.48  0.601834  0.398166  1603.14  0.136718  0.863282  1603.14  0.863282  0.136718  1612.8  0.402238  0.597762  1612.8  0.597762  0.402238  1676.47  0.158544  0.841456  1676.47  0.841456  0.158544  1679.22  0.445192  0.554808  1679.22  0.554808  0.445192  1861.71  0.759666  0.240334  1861.71  0.240334  0.759666  1900.53  0.954042  0.045958  1900.53  0.045958  0.954042  1964.23  0.0134328  0.986567  1964.23  0.986567  0.0134328  1966.88  0.0154638  0.984536  1966.88  0.984536  0.0154638  2015.79  0.0242018  0.975798  2015.79  0.975798  0.0242018  2068.22  0.0103893  0.989611  2068.22  0.989611  0.0103893  2084.37  0.104237  0.895763  2084.37  0.895763  0.104237  2338.9  0.630064  0.369936  2338.9  0.369936  0.630064  2392.39  0.0122781  0.987722  2392.39  0.987722  0.0122781  2408.75  0.986573  0.0134267  2408.75  0.0134267  0.986573  2516.03  0.0636469  0.936353  2516.03  0.936353  0.0636469  2557.75  0.188246  0.811754  2557.75  0.811754  0.188246  2875.45  0.583777  0.416223  2875.45  0.416223  0.583777  2918.38  0.00618768  0.993812  2918.38  0.993812  0.00618768  3078.25  0.451503  0.548497  3078.25  0.548497  0.451503  3474.08  0.995649  0.00435107  3474.08  0.00435107  0.995649  
2  -0.0287208  0.016582   -31.3156  0.299825  0.700175  -23.4887  0.806574  0.193426  -15.9777  0.66579  0.33421  -10.6156  0.658575  0.341425  -6.0365  0.102046  0.897954  5.73682  0.501108  0.498892  13.7871  0.252995  0.747005  14.2187  0.202371  0.797629  25.9331  0.672933  0.327067  32.6759  0.315937  0.684063  35.8147  0.88199  0.11801  46.8345  0.800241  0.199759  52.256  0.866472  0.133528  56.1028  0.621408  0.378592  70.3018  0.819836  0.180164  72.351  0.310564  0.689436  75.8854  0.153834  0.846166  78.5847  0.206828  0.793172  86.4363  0.362082  0.637918  94.8378  0.229348  0.770652  101.079  0.6402  0.3598  101.446  0.150328  0.849672  106.587  0.343823  0.656177  108.252  0.639502  0.360498  114.889  0.572286  0.427714  126.236  0.318791  0.681209  132.57  0.58646  0.41354  134.198  0.72407  0.27593  136.816  0.667408  0.332592  143.807  0.497316  0.502684  152.057  0.389478  0.610522  155.976  0.422431  0.577569  161.498  0.70614  0.29386  163.351  0.837657  0.162343  169.416  0.598867  0.401133  171.919  0.411738  0.588262  180.529  0.621512  0.378488  192.825  0.341114  0.658886  193.996  0.626613  0.373387  200.024  0.776729  0.223271  203.653  0.53  0.47  205.06  0.498854  0.501146  210.207  0.221988  0.778012  218.29  0.577226  0.422774  219.102  0.60659  0.39341  231.173  0.35676  0.64324  233.85  0.324695  0.675305  238.245  0.337412  0.662588  241.082  0.606954  0.393046  244.196  0.455243  0.544757  250.499  0.287425  0.712575  256.281  0.57019  0.42981  260.507  0.507446  0.492554  262.401  0.243757  0.756243  265.682  0.436623  0.563377  272.515  0.456598  0.543402  279.68  0.275065  0.724935  282.232  0.468875  0.531125  291.599  0.536527  0.463473  297.92  0.278415  0.721585  299.104  0.370559  0.629441  304.925  0.70183  0.29817  306.971  0.519282  0.480718  318.153  0.545624  0.454376  322.344  0.476577  0.523423  322.566  0.467085  0.532915  327.679  0.773526  0.226474  336.916  0.743269  0.256731  337.321  0.754882  0.245118  343.847  0.447251  0.552749  346.365  0.498722  0.501278  356.51  0.622045  0.377955  357.729  0.541572  0.458428  371.036  0.770781  0.229219  371.405  0.784682  0.215318  375.898  0.788724  0.211276  376.538  0.735875  0.264125  380.142  0.117239  0.882761  385.669  0.852841  0.147159  400.605  0.253277  0.746723  401.583  0.204731  0.795269  413.086  0.547708  0.452292  417.979  0.713494  0.286506  420.368  0.858362  0.141638  430.215  0.271306  0.728694  430.486  0.276095  0.723905  434.479  0.294134  0.705866  440.831  0.335527  0.664473  442.024  0.440578  0.559422  443.722  0.460471  0.539529  451.686  0.408205  0.591795  453.817  0.279905  0.720095  455.752  0.157007  0.842993  464.208  0.567879  0.432121  470.61  0.225994  0.774006  471.028  0.196312  0.803688  474  0.568113  0.431887  475.769  0.552149  0.447851  485.996  0.232912  0.767088  486.668  0.276686  0.723314  495.205  0.928428  0.0715723  501.098  0.307712  0.692288  502.647  0.37693  0.62307  508.987  0.328814  0.671186  517.558  0.592467  0.407533  520.512  0.610954  0.389046  524.724  0.192128  0.807872  533.301  0.396199  0.603801  535.056  0.370572  0.629428  551.707  0.902837  0.0971633  551.956  0.885004  0.114996  554.081  0.942712  0.0572877  554.209  0.93828  0.0617205  559.898  0.633992  0.366008  561.141  0.689902  0.310098  574.319  0.283117  0.716883  574.388  0.283  0.717  599.684  0.856869  0.143131  599.814  0.862331  0.137669  602.978  0.670227  0.329773  603.477  0.81284  0.18716  604.338  0.647219  0.352781  607.199  0.351477  0.648523  617.021  0.0529489  0.947051  620.129  0.836639  0.163361  622.081  0.817977  0.182023  622.152  0.816585  0.183415  631.492  0.687759  0.312241  631.892  0.651247  0.348753  642.997  0.177968  0.822032  643.09  0.176526  0.823474  654.319  0.0690653  0.930935  667.92  0.918152  0.0818484  678.145  0.0932329  0.906767  678.34  0.0805873  0.919413  683.311  0.0618624  0.938138  683.886  0.0531281  0.946872  687.909  0.833013  0.166987  689.209  0.681537  0.318463  690.667  0.704265  0.295735  707.13  0.901796  0.0982039  711.243  0.145363  0.854637  717.003  0.236296  0.763704  719.224  0.262967  0.737033  720.306  0.270012  0.729988  721.613  0.395468  0.604532  728.061  0.5182  0.4818  730.062  0.311765  0.688235  730.967  0.19681  0.80319  731.627  0.142146  0.857854  749.123  0.0293566  0.970643  754.184  0.204602  0.795398  754.471  0.195305  0.804695  757.977  0.908011  0.0919895  771.204  0.447236  0.552764  772.607  0.590213  0.409787  773.022  0.965157  0.0348426  774.672  0.551453  0.448547  777.789  0.601707  0.398293  781.967  0.73799  0.26201  784.047  0.564877  0.435123  800.09  0.293106  0.706894  803.561  0.226053  0.773947  813.484  0.086547  0.913453  818.227  0.0868152  0.913185  826.199  0.910754  0.0892456  826.958  0.961183  0.0388172  827.494  0.961538  0.038462  828.695  0.929039  0.0709612  848.447  0.957179  0.0428215  849.244  0.363081  0.636919  849.545  0.359315  0.640685  854.536  0.977481  0.0225192  867.303  0.943563  0.0564372  869.986  0.930376  0.0696244  872.958  0.656655  0.343345  873.381  0.679378  0.320622  896.627  0.240082  0.759918  901.163  0.228498  0.771502  904.937  0.0519489  0.948051  916.093  0.875997  0.124003  919.995  0.841655  0.158345  924.499  0.799429  0.200571  928.399  0.810488  0.189512  932.692  0.143566  0.856434  933.841  0.168551  0.831449  945.785  0.88877  0.11123  946.828  0.293035  0.706965  949.063  0.904137  0.0958631  952.449  0.232195  0.767805  955.034  0.0385607  0.961439  966.309  0.665029  0.334971  969.737  0.768104  0.231896  975.28  0.0494886  0.950511  978.488  0.0420648  0.957935  980.853  0.0317381  0.968262  985.087  0.0492295  0.950771  1000.93  0.0275488  0.972451  1006.67  0.0154326  0.984567  1015.45  0.946156  0.0538443  1031.66  0.0334628  0.966537  1039.11  0.764095  0.235905  1043.03  0.746926  0.253074  1054.24  0.0456208  0.954379  1055.41  0.978559  0.0214413  1070.21  0.215526  0.784474  1072.17  0.239799  0.760201  1081.38  0.0667188  0.933281  1084.66  0.0472699  0.95273  1089.11  0.774816  0.225184  1092.92  0.853203  0.146797  1099.65  0.953829  0.0461715  1116.44  0.961267  0.0387335  1116.6  0.184688  0.815312  1117.34  0.165597  0.834403  1121.7  0.975053  0.0249466  1132.96  0.257077  0.742923  1138.55  0.79341  0.20659  1155.8  0.975981  0.0240188  1168.03  0.0362834  0.963717  1186.8  0.968611  0.0313887  1202.58  0.971574  0.0284264  1216.3  0.962007  0.0379927  1225.31  0.963609  0.0363908  1241.78  0.299199  0.700801  1248.22  0.232524  0.767476  1262.72  0.739053  0.260947  1265.31  0.767579  0.232421  1279.34  0.0354727  0.964527  1299.53  0.145457  0.854543  1302.86  0.923011  0.0769886  1317.71  0.0444793  0.955521  1323.6  0.822153  0.177847  1339.33  0.970674  0.0293259  1341.11  0.0323444  0.967656  1366.59  0.0230606  0.976939  1380.77  0.0210736  0.978926  1396.12  0.027241  0.972759  1429.33  0.0298182  0.970182  1457.93  0.0394938  0.960506  1471.68  0.921807  0.0781932  1472.77  0.947519  0.0524808  1502.84  0.0921387  0.907861  1518.63  0.982516  0.0174844  1539.07  0.984716  0.015284  1544.47  0.987115  0.0128851  1563.77  0.0239739  0.976026  1578.89  0.983189  0.016811  1620.2  0.972884  0.0271159  1627.46  0.97745  0.0225495  1656.26  0.979199  0.0208013  1679.64  0.0304978  0.969502  1725.7  0.0148993  0.985101  1750.19  0.00854098  0.991459  1751.52  0.0128852  0.987115  1762.08  0.979295  0.0207046  1797.83  0.0125341  0.987466  1823.49  0.010391  0.989609  1827.2  0.0204048  0.979595  1897.91  0.151398  0.848602  1902.51  0.844331  0.155669  1943.84  0.990132  0.00986767  1975.42  0.992658  0.00734219  1991.67  0.989503  0.0104971  2023.04  0.989313  0.0106873  2048.69  0.991407  0.00859309  2123.6  0.974727  0.0252734  2136.22  0.0292395  0.97076  2177.98  0.00816568  0.991834  2215.98  0.0052832  0.994717  2225.81  0.00881645  0.991184  2259.24  0.00647861  0.993521  2306.71  0.00690475  0.993095  2388.22  0.990541  0.00945865  2437.89  0.994371  0.00562851  2468.27  0.995289  0.00471073  2511.47  0.994326  0.00567409  2558.97  0.994148  0.0058519  2649.44  0.00812079  0.991879  2699.08  0.00497352  0.995026  2738.69  0.00268912  0.997311  2789.38  0.00364847  0.996352  2940.9  0.995817  0.00418335  3018.01  0.997554  0.00244606  3068.63  0.996749  0.00325063  3229.13  0.00374809  0.996252  3327.69  0.000290309  0.99971  3633.99  0.999733  0.000266852  
3  -0.0287208  -0.016582   -31.3156  0.700175  0.299825  -23.4887  0.193426  0.806574  -15.9777  0.33421  0.66579  -10.6156  0.341425  0.658575  -6.0365  0.897954  0.102046  5.73682  0.498892  0.501108  13.7871  0.747005  0.252995  14.2187  0.797629  0.202371  25.9331  0.327067  0.672933  32.6759  0.684063  0.315937  35.8147  0.11801  0.88199  46.8345  0.199759  0.800241  52.256  0.133528  0.866472  56.1028  0.378592  0.621408  70.3018  0.180164  0.819836  72.351  0.689436  0.310564  75.8854  0.846166  0.153834  78.5847  0.793172  0.206828  86.4363  0.637918  0.362082  94.8378  0.770652  0.229348  101.079  0.3598  0.6402  101.446  0.849672  0.150328  106.587  0.656177  0.343823  108.252  0.360498  0.639502  114.889  0.427714  0.572286  126.236  0.681209  0.318791  132.57  0.41354  0.58646  134.198  0.27593  0.72407  136.816  0.332592  0.667408  143.807  0.502684  0.497316  152.057  0.610522  0.389478  155.976  0.577569  0.422431  161.498  0.29386  0.70614  163.351  0.162343  0.837657  169.416  0.401133  0.598867  171.919  0.588262  0.411738  180.529  0.378488  0.621512  192.825  0.658886  0.341114  193.996  0.373387  0.626613  200.024  0.223271  0.776729  203.653  0.47  0.53  205.06  0.501146  0.498854  210.207  0.778012  0.221988  218.29  0.422774  0.577226  219.102  0.39341  0.60659  231.173  0.64324  0.35676  233.85  0.675305  0.324695  238.245  0.662588  0.337412  241.082  0.393046  0.606954  244.196  0.544757  0.455243  250.499  0.712575  0.287425  256.281  0.42981  0.57019  260.507  0.492554  0.507446  262.401  0.756243  0.243757  265.682  0.563377  0.436623  272.515  0.543402  0.456598  279.68  0.724935  0.275065  282.232  0.531125  0.468875  291.599  0.463473  0.536527  297.92  0.721585  0.278415  299.104  0.629441  0.370559  304.925  0.29817  0.70183  306.971  0.480718  0.519282  318.153  0.454376  0.545624  322.344  0.523423  0.476577  322.566  0.532915  0.467085  327.679  0.226474  0.773526  336.916  0.256731  0.743269  337.321  0.245118  0.754882  343.847  0.552749  0.447251  346.365  0.501278  0.498722  356.51  0.377955  0.622045  357.729  0.458428  0.541572  371.036  0.229219  0.770781  371.405  0.215318  0.784682  375.898  0.211276  0.788724  376.538  0.264125  0.735875  380.142  0.882761  0.117239  385.669  0.147159  0.852841  400.605  0.746723  0.253277  401.583  0.795269  0.204731  413.086  0.452292  0.547708  417.979  0.286506  0.713494  420.368  0.141638  0.858362  430.215  0.728694  0.271306  430.486  0.723905  0.276095  434.479  0.705866  0.294134  440.831  0.664473  0.335527  442.024  0.559422  0.440578  443.722  0.539529  0.460471  451.686  0.591795  0.408205  453.817  0.720095  0.279905  455.752  0.842993  0.157007  464.208  0.432121  0.567879  470.61  0.774006  0.225994  471.028  0.803688  0.196312  474  0.431887  0.568113  475.769  0.447851  0.552149  485.996  0.767088  0.232912  486.668  0.723314  0.276686  495.205  0.0715723  0.928428  501.098  0.692288  0.307712  502.647  0.62307  0.37693  508.987  0.671186  0.328814  517.558  0.407533  0.592467  520.512  0.389046  0.610954  524.724  0.807872  0.192128  533.301  0.603801  0.396199  535.056  0.629428  0.370572  551.707  0.0971633  0.902837  551.956  0.114996  0.885004  554.081  0.0572877  0.942712  554.209  0.0617205  0.93828  559.898  0.366008  0.633992  561.141  0.310098  0.689902  574.319  0.716883  0.283117  574.388  0.717  0.283  599.684  0.143131  0.856869  599.814  0.137669  0.862331  602.978  0.329773  0.670227  603.477  0.18716  0.81284  604.338  0.352781  0.647219  607.199  0.648523  0.351477  617.021  0.947051  0.0529489  620.129  0.163361  0.836639  622.081  0.182023  0.817977  622.152  0.183415  0.816585  631.492  0.312241  0.687759  631.892  0.348753  0.651247  642.997  0.822032  0.177968  643.09  0.823474  0.176526  654.319  0.930935  0.0690653  667.92  0.0818484  0.918152  678.145  0.906767  0.0932329  678.34  0.919413  0.0805873  683.311  0.938138  0.0618624  683.886  0.946872  0.0531281  687.909  0.166987  0.833013  689.209  0.318463  0.681537  690.667  0.295735  0.704265  707.13  0.0982039  0.901796  711.243  0.854637  0.145363  717.003  0.763704  0.236296  719.224  0.737033  0.262967  720.306  0.729988  0.270012  721.613  0.604532  0.395468  728.061  0.4818  0.5182  730.062  0.688235  0.311765  730.967  0.80319  0.19681  731.627  0.857854  0.142146  749.123  0.970643  0.0293566  754.184  0.795398  0.204602  754.471  0.804695  0.195305  757.977  0.0919895  0.908011  771.204  0.552764  0.447236  772.607  0.409787  0.590213  773.022  0.0348426  0.965157  774.672  0.448547  0.551453  777.789  0.398293  0.601707  781.967  0.26201  0.73799  784.047  0.435123  0.564877  800.09  0.706894  0.293106  803.561  0.773947  0.226053  813.484  0.913453  0.086547  818.227  0.913185  0.0868152  826.199  0.0892456  0.910754  826.958  0.0388172  0.961183  827.494  0.038462  0.961538  828.695  0.0709612  0.929039  848.447  0.0428215  0.957179  849.244  0.636919  0.363081  849.545  0.640685  0.359315  854.536  0.0225192  0.977481  867.303  0.0564372  0.943563  869.986  0.0696244  0.930376  872.958  0.343345  0.656655  873.381  0.320622  0.679378  896.627  0.759918  0.240082  901.163  0.771502  0.228498  904.937  0.948051  0.0519489  916.093  0.124003  0.875997  919.995  0.158345  0.841655  924.499  0.200571  0.799429  928.399  0.189512  0.810488  932.692  0.856434  0.143566  933.841  0.831449  0.168551  945.785  0.11123  0.88877  946.828  0.706965  0.293035  949.063  0.0958631  0.904137  952.449  0.767805  0.232195  955.034  0.961439  0.0385607  966.309  0.334971  0.665029  969.737  0.231896  0.768104  975.28  0.950511  0.0494886  978.488  0.957935  0.0420648  980.853  0.968262  0.0317381  985.087  0.950771  0.0492295  1000.93  0.972451  0.0275488  1006.67  0.984567  0.0154326  1015.45  0.0538443  0.946156  1031.66  0.966537  0.0334628  1039.11  0.235905  0.764095  1043.03  0.253074  0.746926  1054.24  0.954379  0.0456208  1055.41  0.0214413  0.978559  1070.21  0.784474  0.215526  1072.17  0.760201  0.239799  1081.38  0.933281  0.0667188  1084.66  0.95273  0.0472699  1089.11  0.225184  0.774816  1092.92  0.146797  0.853203  1099.65  0.0461715  0.953829  1116.44  0.0387335  0.961267  1116.6  0.815312  0.184688  1117.34  0.834403  0.165597  1121.7  0.0249466  0.975053  1132.96  0.742923  0.257077  1138.55  0.20659  0.79341  1155.8  0.0240188  0.975981  1168.03  0.963717  0.0362834  1186.8  0.0313887  0.968611  1202.58  0.0284264  0.971574  1216.3  0.0379927  0.962007  1225.31  0.0363908  0.963609  1241.78  0.700801  0.299199  1248.22  0.767476  0.232524  1262.72  0.260947  0.739053  1265.31  0.232421  0.767579  1279.34  0.964527  0.0354727  1299.53  0.854543  0.145457  1302.86  0.0769886  0.923011  1317.71  0.955521  0.0444793  1323.6  0.177847  0.822153  1339.33  0.0293259  0.970674  1341.11  0.967656  0.0323444  1366.59  0.976939  0.0230606  1380.77  0.978926  0.0210736  1396.12  0.972759  0.027241  1429.33  0.970182  0.0298182  1457.93  0.960506  0.0394938  1471.68  0.0781932  0.921807  1472.77  0.0524808  0.947519  1502.84  0.907861  0.0921387  1518.63  0.0174844  0.982516  1539.07  0.015284  0.984716  1544.47  0.0128851  0.987115  1563.77  0.976026  0.0239739  1578.89  0.016811  0.983189  1620.2  0.0271159  0.972884  1627.46  0.0225495  0.97745  1656.26  0.0208013  0.979199  1679.64  0.969502  0.0304978  1725.7  0.985101  0.0148993  1750.19  0.991459  0.00854098  1751.52  0.987115  0.0128852  1762.08  0.0207046  0.979295  1797.83  0.987466  0.0125341  1823.49  0.989609  0.010391  1827.2  0.979595  0.0204048  1897.91  0.848602  0.151398  1902.51  0.155669  0.844331  1943.84  0.00986767  0.990132  1975.42  0.00734219  0.992658  1991.67  0.0104971  0.989503  2023.04  0.0106873  0.989313  2048.69  0.00859309  0.991407  2123.6  0.0252734  0.974727  2136.22  0.97076  0.0292395  2177.98  0.991834  0.00816568  2215.98  0.994717  0.0052832  2225.81  0.991184  0.00881645  2259.24  0.993521  0.00647861  2306.71  0.993095  0.00690475  2388.22  0.00945865  0.990541  2437.89  0.00562851  0.994371  2468.27  0.00471073  0.995289  2511.47  0.00567409  0.994326  2558.97  0.0058519  0.994148  2649.44  0.991879  0.00812079  2699.08  0.995026  0.00497352  2738.69  0.997311  0.00268912  2789.38  0.996352  0.00364847  2940.9  0.00418335  0.995817  3018.01  0.00244606  0.997554  3068.63  0.00325063  0.996749  3229.13  0.996252  0.00374809  3327.69  0.99971  0.000290309  3633.99  0.000266852  0.999733  
4  0.00957362  -0.016582   -30.7354  0.5  0.5  -22.7087  0.5  0.5  -16.9777  0.5  0.5  -11.8543  0.5  0.5  -4.64843  0.5  0.5  -2.02512  0.5  0.5  14.9872  0.5  0.5  24.1864  0.5  0.5  28.402  0.5  0.5  33.5944  0.5  0.5  38.79  0.5  0.5  47.6209  0.5  0.5  47.9768  0.5  0.5  55.6942  0.5  0.5  57.1597  0.5  0.5  66.1308  0.5  0.5  76.744  0.5  0.5  83.1324  0.5  0.5  88.1554  0.500001  0.499999  92.7072  0.5  0.5  94.5631  0.500001  0.499999  103.926  0.499998  0.500002  108.433  0.5  0.5  116.271  0.5  0.5  121.871  0.5  0.5  127.797  0.5  0.5  130.36  0.500001  0.499999  134.96  0.499991  0.500009  136.077  0.500009  0.499991  148.939  0.5  0.5  155.816  0.499999  0.500001  158.015  0.500001  0.499999  160.732  0.5  0.5  162.547  0.5  0.5  169.478  0.5  0.5  172.416  0.500001  0.499999  181.144  0.500001  0.499999  186.711  0.5  0.5  188.263  0.500001  0.499999  195.383  0.5  0.5  200.806  0.5  0.5  204.067  0.5  0.5  208.684  0.5  0.5  217.033  0.500001  0.499999  219.855  0.5  0.5  226.823  0.5  0.5  229.895  0.500002  0.499998  232.851  0.499995  0.500005  239.578  0.500028  0.499972  243.734  0.499973  0.500027  248.39  0.499998  0.500002  250.745  0.5  0.5  264.424  0.499999  0.500001  272.489  0.500001  0.499999  275.981  0.500025  0.499975  281.538  0.499987  0.500013  283.036  0.499995  0.500005  285.538  0.500035  0.499965  292.219  0.500005  0.499995  297.221  0.500006  0.499994  298.263  0.499933  0.500067  300.723  0.500075  0.499925  312.971  0.499982  0.500018  317.836  0.499999  0.500001  326.39  0.499932  0.500068  327.18  0.499957  0.500043  329.9  0.500024  0.499976  331.832  0.500023  0.499977  343.353  0.499815  0.500185  344.877  0.500176  0.499824  349.575  0.500027  0.499973  350.249  0.500021  0.499979  362.027  0.499996  0.500004  362.933  0.499985  0.500015  375.874  0.49997  0.50003  376.97  0.500008  0.499992  380.311  0.500013  0.499987  387.779  0.500013  0.499987  393.497  0.500297  0.499703  394.512  0.499646  0.500354  399.376  0.499966  0.500034  400.105  0.500143  0.499857  406.573  0.499306  0.500694  407.544  0.500743  0.499257  409.149  0.500344  0.499656  414.902  0.500046  0.499954  431.615  0.520187  0.479813  431.856  0.481446  0.518554  436.958  0.518601  0.481399  439.062  0.479367  0.520633  439.927  0.5001  0.4999  444.727  0.49985  0.50015  467.962  0.496468  0.503532  468.099  0.503546  0.496454  474.016  0.52152  0.47848  475.87  0.47814  0.52186  491.83  0.502078  0.497922  492.024  0.497759  0.502241  495.239  0.5014  0.4986  495.388  0.49868  0.50132  500.671  0.500002  0.499998  506.593  0.497592  0.502408  514.163  0.498502  0.501498  518.754  0.505671  0.494329  523.466  0.499817  0.500183  531.882  0.498085  0.501915  533.441  0.494419  0.505581  533.774  0.507123  0.492877  543.468  0.518025  0.481975  543.836  0.48068  0.51932  552.551  0.46998  0.53002  554.372  0.530308  0.469692  559.565  0.495964  0.504036  564.994  0.504587  0.495413  568.4  0.496916  0.503084  568.863  0.502312  0.497688  578.208  0.50515  0.49485  578.429  0.494368  0.505632  586.246  0.426218  0.573782  586.448  0.574841  0.425159  590.93  0.474551  0.525449  592.405  0.525609  0.474391  611.785  0.505244  0.494756  611.863  0.495224  0.504776  620.242  0.521317  0.478683  620.265  0.477829  0.522171  636.738  0.530325  0.469675  637.56  0.471772  0.528228  643.378  0.500764  0.499236  643.652  0.493159  0.506841  644.479  0.505203  0.494797  653.354  0.49851  0.50149  655.913  0.459117  0.540883  656.096  0.541151  0.458849  665.728  0.500095  0.499905  674.474  0.501816  0.498184  678.846  0.558444  0.441556  679.374  0.458568  0.541432  686.508  0.514936  0.485064  687.468  0.59174  0.40826  688.48  0.395734  0.604266  688.594  0.482055  0.517945  706.957  0.503788  0.496212  707.339  0.671461  0.328539  707.427  0.326799  0.673201  712.239  0.496028  0.503972  730.124  0.821257  0.178743  733.078  0.179743  0.820257  751.554  0.588572  0.411428  752.67  0.881874  0.118126  753.545  0.410511  0.589489  758.16  0.127741  0.872259  765.348  0.404875  0.595125  765.424  0.595802  0.404198  781.016  0.152881  0.847119  782.011  0.82932  0.17068  787.743  0.683853  0.316147  787.797  0.316059  0.683941  799.495  0.0747882  0.925212  799.508  0.925801  0.0741993  804.57  0.499598  0.500402  813.412  0.48708  0.51292  819.24  0.260174  0.739826  823.185  0.850148  0.149852  824.556  0.454011  0.545989  828.441  0.476025  0.523975  829.99  0.567045  0.432955  836.195  0.393238  0.606762  836.21  0.611572  0.388428  839.483  0.4019  0.5981  854.321  0.788132  0.211868  855.585  0.148491  0.851509  857.624  0.857152  0.142848  860.749  0.225737  0.774263  867.142  0.218787  0.781213  874.095  0.0923439  0.907656  874.481  0.795128  0.204872  876.286  0.906985  0.0930148  886.315  0.214024  0.785976  888.311  0.747929  0.252071  896.213  0.233617  0.766383  896.296  0.218026  0.781974  898.456  0.278241  0.721759  900.685  0.677835  0.322165  902.06  0.905182  0.0948184  902.378  0.72006  0.27994  933.276  0.909225  0.0907746  934  0.0968487  0.903151  936.971  0.967979  0.0320207  936.982  0.0324559  0.967544  948.289  0.699152  0.300848  949.47  0.252974  0.747026  970.41  0.914855  0.0851446  973.939  0.0759596  0.92404  975.639  0.338353  0.661647  978.345  0.719735  0.280265  983.825  0.914589  0.0854105  989.979  0.0563826  0.943617  990.724  0.943427  0.0565727  993.006  0.558482  0.441518  995.192  0.427523  0.572477  1010.34  0.545277  0.454723  1018.9  0.592896  0.407104  1020.87  0.941093  0.0589074  1024.42  0.920771  0.0792294  1025.36  0.0324734  0.967527  1040.27  0.325583  0.674417  1045.85  0.768144  0.231856  1046.46  0.767533  0.232467  1053.23  0.212314  0.787686  1060.83  0.737714  0.262286  1063.67  0.232292  0.767708  1073.78  0.934552  0.0654478  1097.2  0.342591  0.657409  1102.79  0.656541  0.343459  1139.7  0.291999  0.708001  1144.69  0.0299633  0.970037  1145.05  0.767441  0.232559  1155.29  0.0953775  0.904622  1160.32  0.610555  0.389445  1162.2  0.232431  0.767569  1167.21  0.0207431  0.979257  1188.66  0.462115  0.537885  1197.18  0.0642756  0.935724  1207.54  0.951026  0.0489735  1207.9  0.480572  0.519428  1244.76  0.042168  0.957832  1247.1  0.0564542  0.943546  1251.48  0.920497  0.0795029  1270.57  0.126584  0.873416  1279.63  0.87554  0.12446  1282.88  0.090958  0.909042  1324.56  0.977132  0.0228682  1340.34  0.983541  0.016459  1347.13  0.983397  0.0166029  1378.94  0.0326607  0.967339  1387.48  0.98015  0.0198499  1410.07  0.975167  0.0248329  1423.12  0.0479092  0.952091  1426.81  0.962023  0.037977  1462.42  0.944139  0.0558613  1472.78  0.0328793  0.967121  1488.7  0.969462  0.0305377  1511.15  0.0389089  0.961091  1524.17  0.965068  0.0349321  1538.43  0.0124638  0.987536  1563.83  0.0162996  0.9837  1585.59  0.0162417  0.983758  1589.56  0.0204798  0.97952  1608.24  0.0195966  0.980403  1679.63  0.94  0.06  1687.13  0.0552651  0.944735  1717.74  0.851305  0.148695  1722.86  0.147267  0.852733  1750.67  0.991578  0.00842193  1770.87  0.986918  0.0130816  1790.64  0.98719  0.01281  1796.59  0.984002  0.0159982  1842.55  0.989287  0.0107129  1868.03  0.986194  0.0138055  1900.63  0.0208838  0.979116  1950.52  0.0104255  0.989574  1972.8  0.0080083  0.991992  1975.9  0.00727864  0.992721  2015.86  0.0109608  0.989039  2067.77  0.00865104  0.991349  2093.29  0.0102832  0.989717  2134.75  0.983947  0.0160531  2184.66  0.991153  0.00884704  2206.95  0.993133  0.00686694  2214.64  0.994408  0.00559186  2265.73  0.994173  0.00582721  2288.05  0.993275  0.00672539  2387.2  0.00963186  0.990368  2429.88  0.00502821  0.994972  2466.93  0.00499564  0.995004  2517.96  0.00510645  0.994894  2540.29  0.00575221  0.994248  2648.42  0.991692  0.00830765  2691.08  0.995523  0.00447689  2737.58  0.997359  0.00264073  2781.48  0.996389  0.00361066  2936.39  0.00412745  0.995873  3016.9  0.00240649  0.997594  3060.72  0.00322002  0.99678  3224.62  0.996297  0.00370275  3323.18  0.99971  0.000290323  3629.48  0.000266864  0.999733  
