#index kx_value ky_value E0(k) Overlap_bottom Overlap_top E1(k) Overlap_bottom Overlap_top  E2(k) .....
0  0.0287208  -0.016582   -31.3156  0.299825  0.700175  -23.4887  0.806574  0.193426  -15.9777  0.66579  0.33421  -10.6156  0.658575  0.341425  -6.03649  0.102046  0.897954  5.73682  0.501108  0.498892  13.7871  0.252995  0.747005  14.2187  0.202371  0.797629  25.9331  0.672933  0.327067  32.6759  0.315937  0.684063  35.8147  0.88199  0.11801  46.8345  0.800241  0.199759  52.256  0.866472  0.133528  56.1028  0.621409  0.378591  70.3018  0.819837  0.180163  72.3511  0.310563  0.689437  75.8855  0.153834  0.846166  78.5848  0.206828  0.793172  86.4364  0.362082  0.637918  94.8378  0.229348  0.770652  101.079  0.640198  0.359802  101.446  0.150327  0.849673  106.587  0.343819  0.656181  108.252  0.639508  0.360492  114.889  0.572287  0.427713  126.236  0.318791  0.681209  132.57  0.586459  0.413541  134.198  0.72407  0.27593  136.816  0.667408  0.332592  143.807  0.497313  0.502687  152.057  0.389479  0.610521  155.976  0.422429  0.577571  161.498  0.706143  0.293857  163.351  0.837649  0.162351  169.417  0.59887  0.40113  171.919  0.411746  0.588254  180.529  0.621511  0.378489  192.826  0.341158  0.658842  193.996  0.626575  0.373425  200.024  0.776753  0.223247  203.654  0.529965  0.470035  205.059  0.498843  0.501157  210.207  0.221972  0.778028  218.291  0.577213  0.422787  219.104  0.606598  0.393402  231.175  0.356735  0.643265  233.851  0.324703  0.675297  238.246  0.337392  0.662608  241.084  0.606953  0.393047  244.196  0.455389  0.544611  250.499  0.287432  0.712568  256.277  0.570194  0.429806  260.509  0.507402  0.492598  262.402  0.243722  0.756278  265.683  0.436626  0.563374  272.512  0.45662  0.54338  279.679  0.275049  0.724951  282.229  0.468775  0.531225  291.609  0.536567  0.463433  297.931  0.278239  0.721761  299.103  0.37046  0.62954  304.926  0.701861  0.298139  306.971  0.519366  0.480634  318.163  0.544765  0.455235  322.363  0.47532  0.52468  322.587  0.466378  0.533622  327.686  0.773804  0.226196  336.961  0.744609  0.255391  337.375  0.756332  0.243668  343.836  0.447363  0.552637  346.362  0.498474  0.501526  356.507  0.622482  0.377518  357.725  0.541634  0.458366  371.083  0.772078  0.227922  371.464  0.784301  0.215699  375.891  0.79053  0.20947  376.539  0.736466  0.263534  380.279  0.115836  0.884164  385.548  0.851357  0.148643  400.674  0.252532  0.747468  401.658  0.204307  0.795693  413.144  0.548828  0.451172  418.021  0.713683  0.286317  420.258  0.857919  0.142081  430.196  0.268766  0.731234  430.448  0.272421  0.727579  434.575  0.293618  0.706382  440.866  0.337698  0.662302  442.051  0.443757  0.556243  443.8  0.459987  0.540013  451.735  0.407474  0.592526  453.865  0.278159  0.721841  455.624  0.15866  0.84134  464.283  0.569369  0.430631  470.612  0.229726  0.770274  471.042  0.197937  0.802063  473.938  0.564651  0.435349  475.716  0.551865  0.448135  485.947  0.231874  0.768126  486.616  0.276833  0.723167  495.308  0.929054  0.0709465  501.037  0.307734  0.692266  502.58  0.376933  0.623067  508.899  0.329467  0.670533  517.515  0.591283  0.408717  520.467  0.610834  0.389166  524.675  0.192576  0.807424  533.425  0.395884  0.604116  535.234  0.371717  0.628283  551.755  0.897044  0.102956  552.198  0.886049  0.113951  554.078  0.941641  0.0583593  554.39  0.937101  0.0628995  560.012  0.635141  0.364859  561.255  0.690144  0.309856  574.31  0.283133  0.716867  574.724  0.279709  0.720291  599.711  0.859328  0.140672  601.01  0.82349  0.17651  603.065  0.670629  0.329371  603.96  0.67548  0.32452  605.084  0.80785  0.19215  607.069  0.370631  0.629369  617.428  0.052767  0.947233  619.348  0.838476  0.161524  622.069  0.816311  0.183689  627.578  0.765481  0.234519  631.364  0.684985  0.315015  631.751  0.651648  0.348352  643.004  0.177826  0.822174  644.365  0.243018  0.756982  657.392  0.071385  0.928615  666.576  0.92087  0.0791297  678.301  0.0808339  0.919166  680.627  0.764799  0.235201  681.86  0.0777432  0.922257  683.614  0.0428632  0.957137  683.881  0.131247  0.868753  690.616  0.718405  0.281595  696.199  0.738736  0.261264  708.255  0.924841  0.0751587  710.41  0.120238  0.879762  720.101  0.266535  0.733465  720.617  0.223793  0.776207  721.373  0.139203  0.860797  724.409  0.197181  0.802819  728.093  0.529807  0.470193  732.38  0.36186  0.63814  732.727  0.388732  0.611268  736.498  0.132471  0.867529  745.449  0.0439368  0.956063  754.129  0.204472  0.795528  758.915  0.226045  0.773955  759.597  0.8691  0.1309  768.601  0.704034  0.295966  769.574  0.680817  0.319183  772.601  0.342109  0.657891  773.239  0.35526  0.64474  780.115  0.981417  0.0185831  781.818  0.725987  0.274013  781.907  0.698706  0.301294  798.151  0.246075  0.753925  798.605  0.243583  0.756417  810.195  0.107227  0.892773  812.154  0.0950338  0.904966  826.18  0.925581  0.0744192  826.233  0.923677  0.0763228  827.134  0.967108  0.0328925  848.402  0.959489  0.0405106  848.432  0.95941  0.0405902  855.031  0.353479  0.646521  863.037  0.231766  0.768234  867.759  0.904178  0.0958224  877.255  0.731929  0.268071  880.442  0.769867  0.230133  896.131  0.244291  0.755709  904.522  0.149416  0.850584  904.711  0.971928  0.0280721  916.396  0.878856  0.121144  924.234  0.790601  0.209399  929.282  0.835454  0.164546  932.593  0.140236  0.859764  936.561  0.47529  0.52471  939.78  0.33237  0.66763  944.971  0.884015  0.115985  949.257  0.825658  0.174342  962.522  0.669355  0.330645  962.682  0.658422  0.341578  978.495  0.0421575  0.957842  984.964  0.040747  0.959253  985.496  0.0407193  0.959281  1000.88  0.0274407  0.972559  1005.66  0.714857  0.285143  1012.05  0.853644  0.146356  1017.69  0.366281  0.633719  1031.9  0.0334337  0.966566  1033.44  0.0349812  0.965019  1049.48  0.919207  0.0807932  1054.09  0.045193  0.954807  1059  0.0463919  0.953608  1064.1  0.0260022  0.973998  1081.17  0.0916261  0.908374  1084.49  0.0130353  0.986965  1084.96  0.767073  0.232927  1099.57  0.954856  0.0451444  1100.23  0.953685  0.0463147  1112.87  0.201278  0.798722  1132.02  0.183364  0.816636  1135.72  0.26329  0.73671  1137.58  0.773054  0.226946  1139.94  0.712833  0.287167  1141.71  0.747953  0.252047  1143.74  0.816466  0.183534  1155.84  0.974318  0.0256818  1168.37  0.29561  0.70439  1170.82  0.247746  0.752254  1182.43  0.0492602  0.95074  1183.32  0.0468793  0.953121  1190.5  0.970219  0.0297812  1191.13  0.97645  0.0235498  1202.88  0.975255  0.0247453  1213.3  0.954228  0.0457718  1217.61  0.97139  0.0286103  1225.23  0.967008  0.0329924  1279.34  0.0354094  0.964591  1295.57  0.226124  0.773876  1303.84  0.95478  0.0452199  1317.86  0.0444976  0.955502  1323.07  0.817936  0.182064  1340.5  0.0229344  0.977066  1340.91  0.925844  0.0741565  1351.32  0.273952  0.726048  1355.93  0.232417  0.767583  1370.12  0.661257  0.338743  1370.35  0.0210533  0.978947  1372.98  0.767653  0.232347  1381.26  0.0586734  0.941327  1392.84  0.0295467  0.970453  1432.64  0.0186411  0.981359  1455.34  0.0501538  0.949846  1473.04  0.952215  0.0477854  1522.05  0.983423  0.0165773  1524.26  0.854939  0.145061  1538.76  0.97752  0.0224796  1541.55  0.987625  0.012375  1548.66  0.175146  0.824854  1579.09  0.976972  0.023028  1608.08  0.0314651  0.968535  1630.83  0.986157  0.0138435  1653.46  0.96891  0.03109  1655.71  0.962533  0.0374666  1679.93  0.0293683  0.970632  1729.08  0.0134699  0.98653  1748.63  0.0104332  0.989567  1750.51  0.00870847  0.991292  1801.05  0.0093961  0.990604  1806.45  0.977757  0.0222427  1820.8  0.0145584  0.985442  1862.66  0.0268302  0.97317  1903.64  0.984454  0.0155461  1933.6  0.0412693  0.958731  1943.87  0.962312  0.0376879  1975.73  0.992645  0.00735481  2017.16  0.987102  0.0128984  2026.22  0.991999  0.00800129  2046.01  0.987928  0.0120715  2137.76  0.0141102  0.98589  2159.01  0.981101  0.018899  2177.89  0.0152991  0.984701  2217.79  0.00479347  0.995207  2251.3  0.0106214  0.989379  2259.15  0.00732612  0.992674  2332.04  0.00780433  0.992196  2391.44  0.990368  0.00963197  2452.73  0.993489  0.00651078  2470.06  0.995746  0.00425372  2511.37  0.993584  0.0064165  2584.31  0.993551  0.00644938  2652.64  0.00812957  0.99187  2713.93  0.00569462  0.994305  2742.01  0.00276503  0.997235  2804.09  0.00374951  0.99625  2949.92  0.995702  0.00429811  3021.31  0.997492  0.00250757  3083.35  0.996667  0.00333282  3238.15  0.00384095  0.996159  3336.7  0.00029028  0.99971  3643  0.999733  0.00026683  
1  0  0   -30.1735  0.5  0.5  -21.7205  0.5  0.5  -15.9255  0.5  0.5  -13.9591  0.5  0.5  -10.6084  0.5  0.5  0.933182  0.5  0.5  15.3592  0.5  0.5  28.9459  0.5  0.5  31.2801  0.5  0.5  37.43  0.5  0.5  40.3889  0.5  0.5  42.6164  0.5  0.5  51.0952  0.5  0.5  52.0764  0.5  0.5  59.005  0.5  0.5  62.0087  0.5  0.5  67.6581  0.5  0.5  73.3722  0.5  0.5  80.6901  0.5  0.5  98.188  0.5  0.5  104.533  0.5  0.5  111.834  0.5  0.5  113.787  0.5  0.5  118.719  0.5  0.5  119.937  0.5  0.5  125.545  0.5  0.5  133.13  0.5  0.5  136.595  0.5  0.5  140.349  0.5  0.5  140.509  0.5  0.5  158.051  0.5  0.5  161.351  0.5  0.5  163.601  0.5  0.5  164.446  0.5  0.5  168.123  0.5  0.5  172.44  0.5  0.5  183.407  0.5  0.5  184.605  0.5  0.5  188.035  0.5  0.5  188.578  0.5  0.5  192.66  0.5  0.5  196.289  0.5  0.5  212.161  0.5  0.5  215.855  0.5  0.5  216.159  0.5  0.5  225.246  0.5  0.5  225.918  0.5  0.5  232.727  0.5  0.5  245.224  0.5  0.5  246.777  0.5  0.5  252.945  0.5  0.5  253.857  0.5  0.5  256.428  0.5  0.5  260.795  0.5  0.5  280.684  0.5  0.5  282.326  0.5  0.5  282.639  0.5  0.5  285.087  0.5  0.5  286.485  0.5  0.5  287.364  0.5  0.5  319.397  0.5  0.5  320.475  0.5  0.5  326.358  0.5  0.5  327.699  0.5  0.5  335.792  0.5  0.5  335.866  0.5  0.5  342.813  0.5  0.5  343.283  0.5  0.5  343.45  0.5  0.5  344.901  0.5  0.5  346.227  0.5  0.5  346.615  0.5  0.5  355.456  0.5  0.5  356.386  0.5  0.5  360.524  0.5  0.5  362.816  0.5  0.5  366.285  0.5  0.5  367.616  0.5  0.5  387.803  0.5  0.5  389.038  0.5  0.5  389.727  0.5  0.5  392.823  0.5  0.5  392.963  0.5  0.5  394.772  0.5  0.5  433.612  0.5  0.5  433.836  0.5  0.5  435.762  0.5  0.5  436.399  0.5  0.5  438.317  0.5  0.5  438.835  0.5  0.5  458.944  0.5  0.5  459.036  0.5  0.5  459.29  0.5  0.5  459.561  0.5  0.5  459.791  0.5  0.5  460.04  0.5  0.5  491.714  0.5  0.5  492.468  0.5  0.5  493.17  0.5  0.5  494.536  0.5  0.5  495.247  0.5  0.5  496.028  0.5  0.5  529.443  0.5  0.5  530.117  0.5  0.5  530.899  0.5  0.5  531.745  0.5  0.5  533.41  0.5  0.5  535.382  0.5  0.5  569.907  0.5  0.5  570.747  0.5  0.5  571.711  0.5  0.5  573.662  0.5  0.5  574.327  0.5  0.5  575.976  0.5  0.5  580.704  0.5  0.5  582.244  0.5  0.5  583.441  0.5  0.5  585.161  0.5  0.5  585.294  0.5  0.5  588.499  0.5  0.5  599.639  0.5  0.5  600.746  0.5  0.5  601.995  0.5  0.5  603.236  0.5  0.5  604.702  0.5  0.5  608.34  0.5  0.5  622.243  0.5  0.5  623.332  0.5  0.5  626.05  0.5  0.5  626.501  0.5  0.5  629.83  0.5  0.5  630.508  0.5  0.5  639.146  0.5  0.5  640.538  0.5  0.5  642.087  0.5  0.5  643.016  0.5  0.5  647.97  0.5  0.5  649.716  0.5  0.5  721.092  0.5  0.5  721.585  0.5  0.5  722.129  0.5  0.5  729.388  0.5  0.5  729.4  0.5  0.5  737.189  0.5  0.5  743.045  0.5  0.5  743.596  0.5  0.5  744.141  0.5  0.5  748.134  0.5  0.5  748.172  0.5  0.5  751.961  0.5  0.5  754.205  0.5  0.5  754.763  0.5  0.5  755.328  0.5  0.5  755.596  0.5  0.5  801.862  0.5  0.5  802.78  0.5  0.5  803.894  0.5  0.5  804.761  0.5  0.5  817.859  0.5  0.5  818.403  0.5  0.5  818.972  0.5  0.5  819.371  0.5  0.5  855.461  0.5  0.5  855.603  0.5  0.5  855.8  0.5  0.5  855.974  0.5  0.5  889.95  0.5  0.5  890.639  0.5  0.5  891.456  0.5  0.5  891.932  0.5  0.5  900.871  0.5  0.5  901.792  0.5  0.5  902.635  0.5  0.5  918.466  0.5  0.5  918.466  0.5  0.5  924.256  0.5  0.5  924.394  0.5  0.5  924.569  0.5  0.5  950.936  0.5  0.5  951.823  0.5  0.5  952.96  0.5  0.5  957.504  0.5  0.5  957.973  0.5  0.5  958.886  0.5  0.5  959.547  0.5  0.5  959.763  0.5  0.5  1068.01  0.5  0.5  1068.37  0.5  0.5  1068.78  0.5  0.5  1069.08  0.5  0.5  1081.63  0.5  0.5  1082.55  0.5  0.5  1083.56  0.5  0.5  1102.34  0.5  0.5  1102.69  0.5  0.5  1103.21  0.5  0.5  1108.42  0.5  0.5  1108.43  0.5  0.5  1111.42  0.5  0.5  1112.05  0.5  0.5  1168.21  0.5  0.5  1168.47  0.5  0.5  1170.28  0.5  0.5  1171.72  0.5  0.5  1173.02  0.5  0.5  1173.14  0.5  0.5  1175.92  0.5  0.5  1177.11  0.5  0.5  1188.02  0.5  0.5  1188.02  0.5  0.5  1188.81  0.5  0.5  1188.97  0.5  0.5  1236.9  0.5  0.5  1237.09  0.5  0.5  1237.41  0.5  0.5  1237.43  0.5  0.5  1254.1  0.5  0.5  1254.1  0.5  0.5  1257.15  0.5  0.5  1257.33  0.5  0.5  1297.56  0.5  0.5  1297.56  0.5  0.5  1299.8  0.5  0.5  1322.53  0.5  0.5  1322.53  0.5  0.5  1324.33  0.5  0.5  1348.52  0.5  0.5  1348.52  0.5  0.5  1351.31  0.5  0.5  1355.53  0.5  0.5  1355.6  0.5  0.5  1356.82  0.5  0.5  1437.7  0.458067  0.541933  1437.7  0.541933  0.458067  1488.9  0.499247  0.500753  1488.9  0.500753  0.499247  1505.81  0.49928  0.50072  1505.81  0.50072  0.49928  1520.52  0.5  0.5  1520.52  0.5  0.5  1525.65  0.5  0.5  1537.91  0.5  0.5  1537.91  0.5  0.5  1539.98  0.5  0.5  1576.84  0.547256  0.452744  1576.84  0.452744  0.547256  1601.45  0.501699  0.498301  1601.45  0.498301  0.501699  1616.97  0.617998  0.382002  1616.97  0.382002  0.617998  1674.32  0.6285  0.3715  1674.32  0.3715  0.6285  1780.56  0.25354  0.74646  1780.56  0.74646  0.25354  1819.57  0.613075  0.386925  1819.57  0.386925  0.613075  1863.85  0.0654462  0.934554  1863.85  0.934554  0.0654462  1905.18  0.282719  0.717281  1905.18  0.717281  0.282719  1962.43  0.0171309  0.982869  1962.43  0.982869  0.0171309  2022.58  0.980926  0.0190742  2022.58  0.0190742  0.980926  2073.69  0.974241  0.0257592  2073.69  0.0257592  0.974241  2106.46  0.0168719  0.983128  2106.46  0.983128  0.0168719  2180.27  0.783853  0.216147  2180.27  0.216147  0.783853  2345.94  0.743676  0.256324  2345.94  0.256324  0.743676  2398.26  0.0172744  0.982726  2398.26  0.982726  0.0172744  2503.97  0.973615  0.0263848  2503.97  0.0263848  0.973615  2531.49  0.987268  0.0127324  2531.49  0.0127324  0.987268  2614.53  0.0723867  0.927613  2614.53  0.927613  0.0723867  2891.19  0.028318  0.971682  2891.19  0.971682  0.028318  2974.76  0.994105  0.00589451  2974.76  0.00589451  0.994105  3114.33  0.950237  0.0497635  3114.33  0.0497635  0.950237  3510.13  0.99571  0.00429018  3510.13  0.00429018  0.99571  
2  -0.0287208  0.016582   -31.3156  0.700175  0.299825  -23.4887  0.193427  0.806573  -15.9777  0.334208  0.665792  -10.6155  0.341428  0.658572  -6.03646  0.897954  0.102046  5.73686  0.498891  0.501109  13.7873  0.747  0.253  14.2188  0.797632  0.202368  25.9334  0.327075  0.672925  32.6761  0.684063  0.315937  35.8148  0.118006  0.881994  46.8345  0.199758  0.800242  52.2561  0.133525  0.866475  56.1031  0.378597  0.621403  70.3025  0.180171  0.819829  72.3512  0.689438  0.310562  75.8854  0.846163  0.153837  78.5855  0.793187  0.206813  86.4366  0.637921  0.362079  94.8401  0.770713  0.229287  101.08  0.35983  0.64017  101.448  0.84956  0.15044  106.588  0.656183  0.343817  108.252  0.360515  0.639485  114.89  0.427688  0.572312  126.237  0.681248  0.318752  132.572  0.413477  0.586523  134.202  0.275972  0.724028  136.818  0.332621  0.667379  143.809  0.502556  0.497444  152.063  0.610561  0.389439  155.982  0.5775  0.4225  161.501  0.293867  0.706133  163.352  0.162406  0.837594  169.421  0.401327  0.598673  171.924  0.588532  0.411468  180.537  0.378442  0.621558  192.828  0.660627  0.339373  194.027  0.372326  0.627674  200.106  0.230042  0.769958  203.658  0.470777  0.529223  205.127  0.492883  0.507117  210.21  0.77775  0.22225  218.297  0.422703  0.577297  219.108  0.393008  0.606992  231.206  0.642269  0.357731  233.914  0.674945  0.325055  238.277  0.662051  0.337949  241.132  0.392307  0.607693  244.241  0.54777  0.45223  250.622  0.710857  0.289143  256.428  0.431529  0.568471  260.514  0.492319  0.507681  262.411  0.756123  0.243877  265.684  0.56356  0.43644  272.574  0.544054  0.455946  279.769  0.725079  0.274921  282.329  0.530822  0.469178  291.6  0.463495  0.536505  297.923  0.722112  0.277888  299.181  0.628322  0.371678  305.01  0.297654  0.702346  307.079  0.48174  0.51826  318.154  0.454566  0.545434  322.379  0.523011  0.476989  322.612  0.531176  0.468824  327.682  0.226756  0.773244  336.953  0.258676  0.741324  337.359  0.246952  0.753048  343.965  0.551358  0.448642  346.614  0.498409  0.501591  356.563  0.378722  0.621278  357.817  0.464796  0.535204  371.062  0.228685  0.771315  371.425  0.214349  0.785651  376.082  0.209892  0.790108  376.644  0.261189  0.738811  380.144  0.881804  0.118196  386.176  0.149698  0.850302  400.611  0.746551  0.253449  401.59  0.795177  0.204823  413.088  0.452455  0.547545  417.981  0.286564  0.713436  423.939  0.161454  0.838546  430.313  0.721017  0.278983  430.783  0.697571  0.302429  434.503  0.704718  0.295282  441.028  0.671021  0.328979  442.334  0.571488  0.428512  443.928  0.538107  0.461893  451.737  0.588141  0.411859  453.859  0.71568  0.28432  456.419  0.852496  0.147504  464.221  0.431789  0.568211  470.999  0.828204  0.171796  471.497  0.831499  0.168501  478.345  0.483342  0.516658  480.041  0.613883  0.386117  487.978  0.622166  0.377834  491.116  0.603182  0.396818  495.203  0.0716171  0.928383  503.181  0.61408  0.38592  507.509  0.566721  0.433279  510.707  0.596145  0.403855  519.46  0.358472  0.641528  522.601  0.520773  0.479227  531.664  0.932528  0.0674717  533.291  0.603654  0.396346  535.046  0.629136  0.370864  551.772  0.101177  0.898823  552.401  0.0915777  0.908422  554.191  0.0604029  0.939597  557.496  0.0436507  0.956349  559.924  0.363158  0.636842  561.151  0.309842  0.690158  574.32  0.716888  0.283112  580.551  0.736755  0.263245  599.724  0.137202  0.862798  600.639  0.139098  0.860902  603.558  0.171756  0.828244  608.121  0.148765  0.851235  615.937  0.705126  0.294874  616.907  0.947174  0.0528256  622.07  0.184131  0.815869  622.39  0.445453  0.554547  623.286  0.51558  0.48442  636.23  0.316511  0.683489  640.557  0.225895  0.774105  642.994  0.821785  0.178215  643.075  0.814665  0.185335  654.233  0.930773  0.0692271  678.152  0.907314  0.0926862  678.393  0.917299  0.0827005  683.605  0.959771  0.0402287  689.17  0.319175  0.680825  690.638  0.296281  0.703719  707.018  0.0983992  0.901601  716.947  0.764162  0.235838  719.2  0.738877  0.261123  720.545  0.710469  0.289531  728.149  0.50405  0.49595  730.612  0.875258  0.124742  731.418  0.878509  0.121491  734.602  0.174235  0.825765  754.13  0.795486  0.204514  757.877  0.0927172  0.907283  759.681  0.835959  0.164041  771.928  0.688369  0.311631  772.979  0.0349455  0.965055  781.641  0.296367  0.703633  801.015  0.937394  0.0626056  826.402  0.0592741  0.940726  827.148  0.0376885  0.962312  827.172  0.0368476  0.963152  849.103  0.637395  0.362605  849.345  0.641877  0.358123  852.14  0.0347177  0.965282  867.301  0.058444  0.941556  867.766  0.0495703  0.95043  872.806  0.348623  0.651377  873.145  0.322231  0.677769  896.053  0.755854  0.244146  904.366  0.947436  0.0525636  915.952  0.116779  0.883221  916.182  0.12587  0.87413  924.181  0.2091  0.7909  932.655  0.862551  0.137449  932.744  0.86705  0.13295  945.014  0.115615  0.884385  945.38  0.0658974  0.934103  953.847  0.962167  0.0378332  969.507  0.948157  0.051843  978.517  0.958159  0.0418411  978.956  0.961096  0.0389042  984.687  0.979168  0.0208316  1000.91  0.972452  0.027548  1004.77  0.9748  0.0252001  1014.93  0.0518927  0.948107  1032.05  0.96982  0.0301799  1037.99  0.265292  0.734708  1038.47  0.271912  0.728088  1051.75  0.0296259  0.970374  1057.75  0.969021  0.0309794  1067.74  0.745882  0.254118  1068.05  0.750494  0.249506  1080.06  0.927452  0.072548  1080.33  0.927474  0.072526  1084.52  0.238167  0.761833  1100.82  0.0429096  0.95709  1112.7  0.791074  0.208926  1113.36  0.0508635  0.949137  1115.99  0.041651  0.958349  1132.65  0.874366  0.125634  1143.08  0.0677472  0.932253  1155.7  0.0152717  0.984728  1156.33  0.0248335  0.975166  1186.93  0.0300067  0.969993  1203.02  0.0274343  0.972566  1204.19  0.0302806  0.969719  1228.81  0.0341487  0.965851  1229.5  0.0681613  0.931839  1236.25  0.657598  0.342402  1236.95  0.639335  0.360665  1247.4  0.984038  0.0159623  1258.98  0.323814  0.676186  1259.67  0.308058  0.691942  1279.85  0.963653  0.0363473  1280.57  0.965672  0.0343278  1288.59  0.959844  0.0401564  1291.68  0.773833  0.226167  1302.6  0.0688367  0.931163  1306.07  0.0702164  0.929784  1319.44  0.224653  0.775347  1320.94  0.947118  0.0528823  1322.7  0.97313  0.0268704  1341.7  0.758774  0.241226  1343.92  0.28538  0.71462  1348.4  0.944996  0.0550036  1353.75  0.965596  0.0344043  1366.75  0.977648  0.0223521  1370.69  0.984804  0.0151964  1374.97  0.0584176  0.941582  1385.56  0.985217  0.0147829  1396.95  0.98137  0.0186304  1423.63  0.0150051  0.984995  1429.39  0.971644  0.0283558  1443.57  0.0087868  0.991213  1461.72  0.248378  0.751622  1465.02  0.267476  0.732524  1478.09  0.0229738  0.977026  1492.71  0.766257  0.233743  1494.36  0.73977  0.26023  1503.6  0.942798  0.0572018  1506.55  0.963232  0.0367675  1519.89  0.208258  0.791742  1524.2  0.0318932  0.968107  1539.88  0.0279345  0.972066  1540.33  0.013107  0.986893  1540.49  0.0281726  0.971827  1547.74  0.817328  0.182672  1565.78  0.930752  0.0692481  1583.63  0.0116737  0.988326  1617.28  0.0287156  0.971284  1627.49  0.0221368  0.977863  1685.09  0.982068  0.0179323  1700.09  0.709404  0.290596  1706.36  0.768068  0.231932  1721.1  0.258705  0.741295  1723.29  0.231901  0.768099  1730.89  0.988196  0.0118043  1755.86  0.991047  0.00895254  1761.95  0.0506416  0.949358  1767.28  0.860982  0.139018  1790.96  0.186843  0.813157  1803.66  0.953834  0.0461663  1824.17  0.978548  0.0214523  1895.99  0.965107  0.0348926  1916.09  0.025015  0.974985  1966.44  0.0767367  0.923263  1981.09  0.00842302  0.991577  1987.72  0.011788  0.988212  1997.48  0.905707  0.0942927  2028.54  0.0163232  0.983677  2067.3  0.978341  0.0216592  2121.17  0.022907  0.977093  2123.35  0.0265129  0.973487  2150.13  0.984351  0.0156493  2221.86  0.99001  0.00998998  2230.46  0.995148  0.0048523  2292.67  0.0160667  0.983933  2303.09  0.99  0.00999979  2357.44  0.980071  0.0199288  2422.37  0.0157062  0.984294  2437.98  0.983336  0.0166635  2482.68  0.00410082  0.995899  2529.86  0.010299  0.989701  2555.3  0.00860038  0.9914  2683.38  0.948963  0.0510366  2690.46  0.0515216  0.948478  2773.4  0.996831  0.00316913  2791.05  0.991341  0.00865918  2880.89  0.995451  0.00454911  3004.04  0.00507921  0.994921  3052.67  0.00282988  0.99717  3160.17  0.00397619  0.996024  3292.26  0.995535  0.00446534  3390.78  0.99971  0.000290107  3697.08  0.000266693  0.999733  
3  -0.0287208  -0.016582   -31.3156  0.299825  0.700175  -23.4887  0.806573  0.193427  -15.9777  0.665792  0.334208  -10.6155  0.658572  0.341428  -6.03646  0.102046  0.897954  5.73686  0.501109  0.498891  13.7873  0.253  0.747  14.2188  0.202368  0.797632  25.9334  0.672925  0.327075  32.6761  0.315937  0.684063  35.8148  0.881994  0.118006  46.8345  0.800242  0.199758  52.2561  0.866475  0.133525  56.1031  0.621403  0.378597  70.3025  0.819829  0.180171  72.3512  0.310562  0.689438  75.8854  0.153837  0.846163  78.5855  0.206813  0.793187  86.4366  0.362079  0.637921  94.8401  0.229287  0.770713  101.08  0.64017  0.35983  101.448  0.15044  0.84956  106.588  0.343817  0.656183  108.252  0.639485  0.360515  114.89  0.572312  0.427688  126.237  0.318752  0.681248  132.572  0.586523  0.413477  134.202  0.724028  0.275972  136.818  0.667379  0.332621  143.809  0.497444  0.502556  152.063  0.389439  0.610561  155.982  0.4225  0.5775  161.501  0.706133  0.293867  163.352  0.837594  0.162406  169.421  0.598673  0.401327  171.924  0.411468  0.588532  180.537  0.621558  0.378442  192.828  0.339373  0.660627  194.027  0.627674  0.372326  200.106  0.769958  0.230042  203.658  0.529223  0.470777  205.127  0.507117  0.492883  210.21  0.22225  0.77775  218.297  0.577297  0.422703  219.108  0.606992  0.393008  231.206  0.357731  0.642269  233.914  0.325055  0.674945  238.277  0.337949  0.662051  241.132  0.607693  0.392307  244.241  0.45223  0.54777  250.622  0.289143  0.710857  256.428  0.568471  0.431529  260.514  0.507681  0.492319  262.411  0.243877  0.756123  265.684  0.43644  0.56356  272.574  0.455946  0.544054  279.769  0.274921  0.725079  282.329  0.469178  0.530822  291.6  0.536505  0.463495  297.923  0.277888  0.722112  299.181  0.371678  0.628322  305.01  0.702346  0.297654  307.079  0.51826  0.48174  318.154  0.545434  0.454566  322.379  0.476989  0.523011  322.612  0.468824  0.531176  327.682  0.773244  0.226756  336.953  0.741324  0.258676  337.359  0.753048  0.246952  343.965  0.448642  0.551358  346.614  0.501591  0.498409  356.563  0.621278  0.378722  357.817  0.535204  0.464796  371.062  0.771315  0.228685  371.425  0.785651  0.214349  376.082  0.790108  0.209892  376.644  0.738811  0.261189  380.144  0.118196  0.881804  386.176  0.850302  0.149698  400.611  0.253449  0.746551  401.59  0.204823  0.795177  413.088  0.547545  0.452455  417.981  0.713436  0.286564  423.939  0.838546  0.161454  430.313  0.278983  0.721017  430.783  0.302429  0.697571  434.503  0.295282  0.704718  441.028  0.328979  0.671021  442.334  0.428512  0.571488  443.928  0.461893  0.538107  451.737  0.411859  0.588141  453.859  0.28432  0.71568  456.419  0.147504  0.852496  464.221  0.568211  0.431789  470.999  0.171796  0.828204  471.497  0.168501  0.831499  478.345  0.516658  0.483342  480.041  0.386117  0.613883  487.978  0.377834  0.622166  491.116  0.396818  0.603182  495.203  0.928383  0.0716171  503.181  0.38592  0.61408  507.509  0.433279  0.566721  510.707  0.403855  0.596145  519.46  0.641528  0.358472  522.601  0.479227  0.520773  531.664  0.0674717  0.932528  533.291  0.396346  0.603654  535.046  0.370864  0.629136  551.772  0.898823  0.101177  552.401  0.908422  0.0915777  554.191  0.939597  0.0604029  557.496  0.956349  0.0436507  559.924  0.636842  0.363158  561.151  0.690158  0.309842  574.32  0.283112  0.716888  580.551  0.263245  0.736755  599.724  0.862798  0.137202  600.639  0.860902  0.139098  603.558  0.828244  0.171756  608.121  0.851235  0.148765  615.937  0.294874  0.705126  616.907  0.0528256  0.947174  622.07  0.815869  0.184131  622.39  0.554547  0.445453  623.286  0.48442  0.51558  636.23  0.683489  0.316511  640.557  0.774105  0.225895  642.994  0.178215  0.821785  643.075  0.185335  0.814665  654.233  0.0692271  0.930773  678.152  0.0926862  0.907314  678.393  0.0827005  0.917299  683.605  0.0402287  0.959771  689.17  0.680825  0.319175  690.638  0.703719  0.296281  707.018  0.901601  0.0983992  716.947  0.235838  0.764162  719.2  0.261123  0.738877  720.545  0.289531  0.710469  728.149  0.49595  0.50405  730.612  0.124742  0.875258  731.418  0.121491  0.878509  734.602  0.825765  0.174235  754.13  0.204514  0.795486  757.877  0.907283  0.0927172  759.681  0.164041  0.835959  771.928  0.311631  0.688369  772.979  0.965055  0.0349455  781.641  0.703633  0.296367  801.015  0.0626056  0.937394  826.402  0.940726  0.0592741  827.148  0.962312  0.0376885  827.172  0.963152  0.0368476  849.103  0.362605  0.637395  849.345  0.358123  0.641877  852.14  0.965282  0.0347177  867.301  0.941556  0.058444  867.766  0.95043  0.0495703  872.806  0.651377  0.348623  873.145  0.677769  0.322231  896.053  0.244146  0.755854  904.366  0.0525636  0.947436  915.952  0.883221  0.116779  916.182  0.87413  0.12587  924.181  0.7909  0.2091  932.655  0.137449  0.862551  932.744  0.13295  0.86705  945.014  0.884385  0.115615  945.38  0.934103  0.0658974  953.847  0.0378332  0.962167  969.507  0.051843  0.948157  978.517  0.0418411  0.958159  978.956  0.0389042  0.961096  984.687  0.0208316  0.979168  1000.91  0.027548  0.972452  1004.77  0.0252001  0.9748  1014.93  0.948107  0.0518927  1032.05  0.0301799  0.96982  1037.99  0.734708  0.265292  1038.47  0.728088  0.271912  1051.75  0.970374  0.0296259  1057.75  0.0309794  0.969021  1067.74  0.254118  0.745882  1068.05  0.249506  0.750494  1080.06  0.072548  0.927452  1080.33  0.072526  0.927474  1084.52  0.761833  0.238167  1100.82  0.95709  0.0429096  1112.7  0.208926  0.791074  1113.36  0.949137  0.0508635  1115.99  0.958349  0.041651  1132.65  0.125634  0.874366  1143.08  0.932253  0.0677472  1155.7  0.984728  0.0152717  1156.33  0.975166  0.0248335  1186.93  0.969993  0.0300067  1203.02  0.972566  0.0274343  1204.19  0.969719  0.0302806  1228.81  0.965851  0.0341487  1229.5  0.931839  0.0681613  1236.25  0.342402  0.657598  1236.95  0.360665  0.639335  1247.4  0.0159623  0.984038  1258.98  0.676186  0.323814  1259.67  0.691942  0.308058  1279.85  0.0363473  0.963653  1280.57  0.0343278  0.965672  1288.59  0.0401564  0.959844  1291.68  0.226167  0.773833  1302.6  0.931163  0.0688367  1306.07  0.929784  0.0702164  1319.44  0.775347  0.224653  1320.94  0.0528823  0.947118  1322.7  0.0268704  0.97313  1341.7  0.241226  0.758774  1343.92  0.71462  0.28538  1348.4  0.0550036  0.944996  1353.75  0.0344043  0.965596  1366.75  0.0223521  0.977648  1370.69  0.0151964  0.984804  1374.97  0.941582  0.0584176  1385.56  0.0147829  0.985217  1396.95  0.0186304  0.98137  1423.63  0.984995  0.0150051  1429.39  0.0283558  0.971644  1443.57  0.991213  0.0087868  1461.72  0.751622  0.248378  1465.02  0.732524  0.267476  1478.09  0.977026  0.0229738  1492.71  0.233743  0.766257  1494.36  0.26023  0.73977  1503.6  0.0572018  0.942798  1506.55  0.0367675  0.963232  1519.89  0.791742  0.208258  1524.2  0.968107  0.0318932  1539.88  0.972066  0.0279345  1540.33  0.986893  0.013107  1540.49  0.971827  0.0281726  1547.74  0.182672  0.817328  1565.78  0.0692481  0.930752  1583.63  0.988326  0.0116737  1617.28  0.971284  0.0287156  1627.49  0.977863  0.0221368  1685.09  0.0179323  0.982068  1700.09  0.290596  0.709404  1706.36  0.231932  0.768068  1721.1  0.741295  0.258705  1723.29  0.768099  0.231901  1730.89  0.0118043  0.988196  1755.86  0.00895254  0.991047  1761.95  0.949358  0.0506416  1767.28  0.139018  0.860982  1790.96  0.813157  0.186843  1803.66  0.0461663  0.953834  1824.17  0.0214523  0.978548  1895.99  0.0348926  0.965107  1916.09  0.974985  0.025015  1966.44  0.923263  0.0767367  1981.09  0.991577  0.00842302  1987.72  0.988212  0.011788  1997.48  0.0942927  0.905707  2028.54  0.983677  0.0163232  2067.3  0.0216592  0.978341  2121.17  0.977093  0.022907  2123.35  0.973487  0.0265129  2150.13  0.0156493  0.984351  2221.86  0.00998998  0.99001  2230.46  0.0048523  0.995148  2292.67  0.983933  0.0160667  2303.09  0.00999979  0.99  2357.44  0.0199288  0.980071  2422.37  0.984294  0.0157062  2437.98  0.0166635  0.983336  2482.68  0.995899  0.00410082  2529.86  0.989701  0.010299  2555.3  0.9914  0.00860038  2683.38  0.0510366  0.948963  2690.46  0.948478  0.0515216  2773.4  0.00316913  0.996831  2791.05  0.00865918  0.991341  2880.89  0.00454911  0.995451  3004.04  0.994921  0.00507921  3052.67  0.99717  0.00282988  3160.17  0.996024  0.00397619  3292.26  0.00446534  0.995535  3390.78  0.000290107  0.99971  3697.08  0.999733  0.000266693  
4  0.00957362  -0.016582   -30.7354  0.5  0.5  -22.7087  0.5  0.5  -16.9777  0.5  0.5  -11.8543  0.5  0.5  -4.64843  0.5  0.5  -2.02512  0.5  0.5  14.9872  0.499999  0.500001  24.1864  0.499998  0.500002  28.4021  0.500001  0.499999  33.5945  0.499999  0.500001  38.79  0.500002  0.499998  47.621  0.499986  0.500014  47.9769  0.500022  0.499978  55.6943  0.499998  0.500002  57.1597  0.499996  0.500004  66.1308  0.499999  0.500001  76.7441  0.499991  0.500009  83.1325  0.500011  0.499989  88.1554  0.499998  0.500002  92.7073  0.499997  0.500003  94.5631  0.500004  0.499996  103.926  0.499997  0.500003  108.433  0.500001  0.499999  116.271  0.499998  0.500002  121.871  0.499993  0.500007  127.797  0.499973  0.500027  130.36  0.500024  0.499976  134.96  0.499936  0.500064  136.077  0.500068  0.499932  148.94  0.500013  0.499987  155.816  0.500053  0.499947  158.015  0.499964  0.500036  160.733  0.500052  0.499948  162.548  0.499905  0.500095  169.478  0.500096  0.499904  172.417  0.499893  0.500107  181.145  0.499945  0.500055  186.713  0.499914  0.500086  188.265  0.500144  0.499856  195.385  0.500063  0.499937  200.808  0.50003  0.49997  204.068  0.499988  0.500012  208.687  0.499952  0.500048  217.034  0.500015  0.499985  219.857  0.499954  0.500046  226.825  0.500005  0.499995  229.897  0.500057  0.499943  232.853  0.499848  0.500152  239.579  0.500209  0.499791  243.736  0.499743  0.500257  248.396  0.500298  0.499702  250.752  0.499794  0.500206  264.431  0.499633  0.500367  272.497  0.499209  0.500791  275.99  0.499763  0.500237  281.561  0.494002  0.505998  283.086  0.495257  0.504743  285.588  0.510349  0.489651  292.23  0.500889  0.499111  297.226  0.500243  0.499757  298.27  0.499778  0.500222  300.731  0.501157  0.498843  312.979  0.499459  0.500541  317.848  0.498937  0.501063  326.445  0.498985  0.501015  327.243  0.504943  0.495057  329.963  0.519374  0.480626  331.905  0.479227  0.520773  343.371  0.496007  0.503993  344.898  0.507843  0.492157  349.634  0.497609  0.502391  350.314  0.497701  0.502299  362.063  0.497679  0.502321  362.969  0.502411  0.497589  375.937  0.504894  0.495106  376.967  0.500221  0.499779  380.375  0.495435  0.504565  387.83  0.499729  0.500271  393.556  0.524592  0.475408  394.578  0.47464  0.52536  399.454  0.496395  0.503605  400.106  0.49975  0.50025  406.614  0.494069  0.505931  407.583  0.505905  0.494095  409.187  0.502924  0.497076  414.944  0.499795  0.500205  431.626  0.560112  0.439888  431.879  0.439601  0.560399  436.913  0.503703  0.496297  439.01  0.497092  0.502908  439.983  0.491726  0.508274  444.794  0.509294  0.490706  467.997  0.61523  0.38477  468.268  0.382797  0.617203  473.973  0.503818  0.496182  475.829  0.495932  0.504068  491.834  0.154817  0.845183  492.278  0.826596  0.173404  495.249  0.295987  0.704013  495.733  0.722604  0.277396  500.807  0.501597  0.498403  506.541  0.499576  0.500424  514.111  0.498969  0.501031  518.726  0.50178  0.49822  523.534  0.499233  0.500767  531.891  0.482162  0.517838  533.51  0.222095  0.777905  535.257  0.721879  0.278121  543.589  0.603476  0.396524  546.011  0.438991  0.561009  552.737  0.634546  0.365454  554.672  0.367327  0.632673  559.619  0.481239  0.518761  565.158  0.510664  0.489336  568.541  0.444934  0.555066  571.597  0.435193  0.564807  578.237  0.595042  0.404958  579.78  0.598064  0.401936  586.298  0.157191  0.842809  587.975  0.8249  0.1751  591.473  0.872632  0.127368  594.987  0.126279  0.873721  611.731  0.45169  0.54831  617.099  0.391734  0.608266  620.188  0.751128  0.248872  624.811  0.403546  0.596454  637.013  0.313647  0.686353  638.96  0.819329  0.180671  643.259  0.49999  0.50001  644.098  0.595819  0.404181  649.173  0.269083  0.730917  655.502  0.829749  0.170251  656.771  0.652951  0.347049  661.512  0.0758968  0.924103  665.663  0.500076  0.499924  677.611  0.389212  0.610788  678.972  0.616817  0.383183  681.154  0.191603  0.808397  687.198  0.233057  0.766943  687.645  0.654431  0.345569  690.443  0.779542  0.220458  692.414  0.576593  0.423407  707.283  0.674251  0.325749  709.056  0.136729  0.863271  712.097  0.256814  0.743186  716.787  0.890095  0.109905  729.555  0.519297  0.480703  731.717  0.483824  0.516176  751.448  0.505672  0.494328  752.667  0.105218  0.894782  753.355  0.486992  0.513008  765.031  0.600165  0.399835  778.258  0.230498  0.769502  780.895  0.54475  0.45525  781.38  0.454381  0.545619  787.65  0.315438  0.684562  795.727  0.770008  0.229992  796.766  0.0651678  0.934832  811.406  0.499055  0.500945  811.872  0.497963  0.502037  818.183  0.484709  0.515291  820.261  0.515655  0.484345  827.078  0.933856  0.0661445  831.433  0.241006  0.758994  832.384  0.421609  0.578391  836.843  0.501325  0.498675  853.352  0.788306  0.211694  856.626  0.848801  0.151199  864.804  0.437205  0.562795  865.989  0.150382  0.849618  871.538  0.497839  0.502161  874.303  0.954852  0.0451485  883.42  0.263155  0.736845  894.569  0.527373  0.472627  896.66  0.922844  0.0771559  897.876  0.90865  0.0913502  898.213  0.50604  0.49396  931.846  0.948309  0.051691  933.299  0.0716721  0.928328  944.341  0.268221  0.731779  970.317  0.145323  0.854677  974.1  0.641679  0.358321  981.317  0.489645  0.510355  984.99  0.483935  0.516065  986.12  0.917385  0.0826152  989.264  0.525686  0.474314  1006.71  0.499889  0.500111  1010.18  0.946089  0.0539109  1020.77  0.0495844  0.950416  1025.13  0.093532  0.906468  1026.24  0.788142  0.211858  1035.75  0.445397  0.554603  1050.18  0.0564868  0.943513  1056.69  0.648242  0.351758  1069.6  0.0548931  0.945107  1073  0.150693  0.849307  1077.89  0.840431  0.159569  1097.88  0.744765  0.255235  1098.65  0.224154  0.775846  1103.82  0.220665  0.779335  1105.87  0.789008  0.210992  1113.48  0.0574236  0.942576  1133.32  0.652493  0.347507  1145.15  0.962055  0.0379447  1146.92  0.0317221  0.968278  1150.92  0.0464067  0.953593  1154.14  0.651503  0.348497  1158.01  0.646219  0.353781  1171.05  0.979663  0.0203375  1172.6  0.0132577  0.986742  1187.84  0.940636  0.0593639  1192.15  0.434993  0.565007  1196.1  0.965707  0.0342934  1203.36  0.0768187  0.923181  1216.8  0.574173  0.425827  1231.53  0.974562  0.0254382  1243.01  0.745961  0.254039  1244.58  0.956744  0.0432564  1245.2  0.742487  0.257513  1250.16  0.236363  0.763637  1268.8  0.985514  0.0144862  1272.73  0.856192  0.143808  1274.12  0.253297  0.746703  1279.88  0.162806  0.837194  1286.46  0.0411331  0.958867  1320.45  0.97117  0.0288301  1325.03  0.0221648  0.977835  1340.29  0.0122365  0.987763  1350.66  0.0804548  0.919545  1352.11  0.237522  0.762478  1379.76  0.700377  0.299623  1387.45  0.0333495  0.96665  1393.53  0.957184  0.0428161  1405.83  0.490382  0.509618  1413.71  0.0196455  0.980354  1423.34  0.471172  0.528828  1424.18  0.0444902  0.95551  1468.2  0.232272  0.767728  1473.93  0.962568  0.0374324  1485.2  0.767782  0.232218  1487.07  0.0551861  0.944814  1516.1  0.98281  0.0171905  1538.44  0.989653  0.0103471  1560.25  0.982622  0.0173778  1579.83  0.724423  0.275577  1586.6  0.981663  0.0183366  1599.84  0.296292  0.703708  1611.84  0.983684  0.0163158  1656.88  0.046919  0.953081  1680.49  0.149439  0.850561  1685.38  0.840182  0.159818  1695.98  0.944212  0.0557885  1723.11  0.0127269  0.987273  1751.99  0.00934662  0.990653  1767.29  0.0140495  0.98595  1795.26  0.00969961  0.9903  1839.34  0.0172226  0.982777  1855.39  0.969194  0.0308059  1902.84  0.0372177  0.962782  1905.69  0.985592  0.0144081  1951.49  0.987437  0.0125632  1973.87  0.0167673  0.983233  1977.2  0.992621  0.00737899  2020.42  0.991823  0.00817716  2047.77  0.984076  0.0159241  2064.54  0.985955  0.0140454  2139.82  0.0119319  0.988068  2185.58  0.0187815  0.981218  2199.21  0.978487  0.0215126  2219.92  0.00447437  0.995526  2267.11  0.00819678  0.991803  2281.9  0.0128094  0.987191  2362.48  0.0103654  0.989635  2397.92  0.988626  0.0113744  2472.18  0.996063  0.00393703  2473.35  0.992456  0.00754426  2519.34  0.992841  0.00715948  2614.78  0.99208  0.00792022  2659.11  0.00894588  0.991054  2734.54  0.00652412  0.993476  2748.56  0.00286407  0.997136  2824.59  0.00392772  0.996072  2963.45  0.995522  0.00447795  3027.85  0.997413  0.00258718  3103.86  0.996523  0.00347745  3251.68  0.00398589  0.996014  3350.22  0.000290237  0.99971  3656.52  0.999733  0.000266796  
