#index kx_value ky_value E0(k) Overlap_bottom Overlap_top E1(k) Overlap_bottom Overlap_top  E2(k) .....
0  0.0455884  -0.0263205   -13.3686  0.188371  0.811629  -2.72367  0.970672  0.0293283  13.7988  0.587407  0.412593  18.4231  0.780492  0.219508  36.5548  0.133716  0.866284  42.133  0.334276  0.665724  44.5675  0.199674  0.800326  52.4672  0.294362  0.705638  54.205  0.1863  0.8137  57.3979  0.437406  0.562594  74.3815  0.755207  0.244793  74.8354  0.731173  0.268827  76.3537  0.488211  0.511789  110.826  0.927532  0.0724685  110.84  0.917049  0.0829509  111.816  0.924038  0.0759619  122.852  0.887547  0.112453  123.898  0.868806  0.131194  124.366  0.863316  0.136684  150.546  0.0502993  0.949701  150.606  0.0409128  0.959087  151.181  0.0634646  0.936535  155.35  0.1306  0.8694  155.859  0.130809  0.869191  155.944  0.153982  0.846018  198.93  0.300297  0.699703  199.777  0.265258  0.734742  200.253  0.336409  0.663591  203.04  0.0892902  0.91071  203.39  0.170928  0.829072  204.481  0.112723  0.887277  220.425  0.677676  0.322324  220.654  0.661506  0.338494  220.848  0.648763  0.351237  231.58  0.909848  0.0901516  231.68  0.907561  0.0924388  231.714  0.905018  0.0949823  269.665  0.973231  0.0267694  269.665  0.973232  0.026768  269.673  0.973103  0.0268969  321.113  0.907584  0.0924161  321.116  0.906407  0.093593  321.133  0.904971  0.095029  323.391  0.93299  0.0670098  323.402  0.929779  0.0702207  323.406  0.931803  0.0681966  348.713  0.020857  0.979143  348.748  0.0239769  0.976023  348.803  0.0254601  0.97454  353.065  0.117125  0.882875  353.137  0.118767  0.881233  353.181  0.12262  0.87738  363.612  0.0318717  0.968128  363.613  0.0330787  0.966921  363.676  0.0345653  0.965435  366.842  0.042342  0.957658  366.874  0.0433572  0.956643  366.882  0.0429759  0.957024  425.134  0.959552  0.0404481  425.135  0.959574  0.040426  425.135  0.959572  0.0404281  456.825  0.157682  0.842318  456.835  0.158004  0.841996  456.886  0.158529  0.841471  457.561  0.137069  0.862931  457.611  0.13748  0.86252  457.621  0.137794  0.862206  480.464  0.841701  0.158299  480.464  0.841636  0.158364  480.466  0.841362  0.158638  482.261  0.868316  0.131684  482.263  0.868123  0.131877  482.263  0.868069  0.131931  518.907  0.985374  0.0146262  519.226  0.984821  0.0151793  519.226  0.98482  0.0151797  534.123  0.979472  0.020528  534.588  0.980412  0.0195883  534.588  0.980412  0.0195881  610.058  0.0122168  0.987783  610.391  0.0124721  0.987528  610.393  0.0123459  0.987654  611.76  0.0441048  0.955895  612.379  0.0430143  0.956986  612.379  0.0429212  0.957079  628.481  0.940049  0.0599512  628.932  0.941395  0.0586049  628.939  0.941366  0.0586337  629.168  0.926255  0.0737454  629.611  0.926844  0.0731556  629.618  0.926864  0.0731358  662.753  0.0219567  0.978043  663.097  0.0217484  0.978252  663.108  0.0221003  0.9779  664.956  0.0224892  0.977511  665.319  0.0222512  0.977749  665.379  0.0214383  0.978562  666.186  0.0597635  0.940237  666.773  0.0577838  0.942216  666.791  0.0580749  0.941925  668.214  0.0520444  0.947956  668.907  0.0487578  0.951242  668.911  0.0488925  0.951108  725.552  0.96928  0.0307202  726.096  0.970893  0.0291073  726.096  0.970893  0.0291073  740.668  0.983731  0.0162687  741.348  0.985479  0.0145205  741.348  0.985479  0.0145206  814.738  0.143754  0.856246  814.74  0.143533  0.856467  814.995  0.148133  0.851867  815.021  0.147042  0.852958  815.329  0.144077  0.855923  815.329  0.144077  0.855923  831.446  0.990973  0.00902739  838.838  0.850192  0.149808  838.907  0.851315  0.148685  839  0.857939  0.142061  839.002  0.857797  0.142203  839.341  0.855783  0.144217  839.341  0.855783  0.144217  884.263  0.985705  0.0142951  886.534  0.984571  0.0154286  961.587  0.00770997  0.99229  963.52  0.0198155  0.980184  977.123  0.0104186  0.989581  978.866  0.0118248  0.988175  1037.74  0.946257  0.0537431  1037.75  0.946463  0.0535373  1072.53  0.0401721  0.959828  1072.86  0.0167784  0.983222  1075.66  0.0551543  0.944846  1075.74  0.0548178  0.945182  1088.9  0.962597  0.0374029  1142.31  0.981603  0.0183966  1144.57  0.983429  0.0165713  1234.04  0.993926  0.00607372  1249.66  0.991998  0.00800204  1345.3  0.984487  0.0155131  1345.45  0.988715  0.0112854  1376.41  0.00560696  0.994393  1378  0.01504  0.98496  1430.17  0.00611294  0.993887  1431.54  0.012501  0.987499  1432.48  0.00650276  0.993497  1433.83  0.0114055  0.988595  1542.71  0.98991  0.0100905  1558.38  0.993256  0.00674434  1699.97  0.995387  0.00461258  1753.73  0.99532  0.00468008  1756.06  0.99501  0.00498992  1882.1  0.00298751  0.997012  1883.12  0.00777531  0.992225  1897.99  0.00324535  0.996755  1898.86  0.00543725  0.994563  2061.3  0.994557  0.00544283  2256.71  0.997521  0.00247863  2272.62  0.997328  0.00267199  2452.44  0.000469796  0.99953  2452.86  0.00450923  0.995491  2878.11  0.999602  0.000397788  
1  0  0   -6.75705  0.5  0.5  -1.92591  0.5  0.5  2.50457  0.5  0.5  12.5648  0.5  0.5  29.5673  0.5  0.5  36.8547  0.5  0.5  58.8654  0.5  0.5  60.101  0.5  0.5  62.1287  0.5  0.5  66.1185  0.5  0.5  73.9783  0.5  0.5  74.9568  0.5  0.5  102.05  0.5  0.5  103.643  0.5  0.5  106.5  0.5  0.5  111.294  0.5  0.5  113.269  0.5  0.5  119.395  0.5  0.5  124.523  0.5  0.5  129.347  0.5  0.5  131.067  0.5  0.5  133.365  0.5  0.5  133.79  0.5  0.5  133.904  0.5  0.5  210.057  0.5  0.5  210.591  0.5  0.5  211.537  0.5  0.5  212.892  0.5  0.5  214.249  0.5  0.5  215.265  0.5  0.5  224.638  0.5  0.5  225.416  0.5  0.5  226.93  0.5  0.5  227.78  0.5  0.5  228.916  0.5  0.5  229.181  0.5  0.5  272.059  0.5  0.5  272.065  0.5  0.5  272.8  0.5  0.5  272.805  0.5  0.5  273.561  0.5  0.5  273.562  0.5  0.5  315.283  0.5  0.5  315.459  0.5  0.5  316.413  0.5  0.5  316.798  0.5  0.5  317.795  0.5  0.5  318.011  0.5  0.5  332.401  0.5  0.5  332.549  0.5  0.5  333.173  0.5  0.5  333.42  0.5  0.5  333.978  0.5  0.5  334.084  0.5  0.5  422.695  0.5  0.5  422.742  0.5  0.5  422.801  0.5  0.5  422.854  0.5  0.5  423.12  0.5  0.5  423.218  0.5  0.5  473.517  0.5  0.5  473.856  0.5  0.5  474.055  0.5  0.5  474.809  0.5  0.5  475.056  0.5  0.5  475.838  0.5  0.5  476.988  0.5  0.5  477.679  0.5  0.5  478.029  0.5  0.5  478.638  0.5  0.5  478.841  0.5  0.5  479.263  0.5  0.5  521.802  0.5  0.5  521.877  0.5  0.5  521.975  0.5  0.5  522.06  0.5  0.5  522.47  0.5  0.5  522.63  0.5  0.5  536.489  0.5  0.5  536.568  0.5  0.5  536.665  0.5  0.5  536.749  0.5  0.5  537.344  0.5  0.5  537.506  0.5  0.5  622.16  0.5  0.5  622.199  0.5  0.5  622.241  0.5  0.5  622.877  0.5  0.5  622.88  0.5  0.5  623.409  0.5  0.5  639.102  0.5  0.5  639.125  0.5  0.5  639.149  0.5  0.5  639.697  0.5  0.5  639.699  0.5  0.5  640.124  0.5  0.5  723.198  0.5  0.5  723.198  0.5  0.5  723.476  0.5  0.5  723.488  0.5  0.5  738.613  0.5  0.5  738.613  0.5  0.5  738.994  0.5  0.5  739.008  0.5  0.5  830.459  0.5  0.5  830.594  0.5  0.5  831.022  0.5  0.5  831.534  0.5  0.5  832.817  0.5  0.5  833.456  0.5  0.5  834.17  0.5  0.5  834.8  0.5  0.5  836.073  0.5  0.5  836.358  0.5  0.5  836.754  0.5  0.5  837.119  0.5  0.5  886.972  0.5  0.5  886.973  0.5  0.5  887.275  0.5  0.5  887.36  0.5  0.5  889.246  0.5  0.5  889.248  0.5  0.5  889.534  0.5  0.5  889.615  0.5  0.5  1031.11  0.5  0.5  1031.11  0.5  0.5  1031.52  0.5  0.5  1048.03  0.5  0.5  1048.03  0.5  0.5  1048.38  0.5  0.5  1086.9  0.0358291  0.964171  1086.9  0.964171  0.0358291  1140.13  0.988457  0.0115429  1140.13  0.0115429  0.988457  1142.59  0.988734  0.0112661  1142.59  0.0112661  0.988734  1236.04  0.013898  0.986102  1236.04  0.986102  0.013898  1251.59  0.00912342  0.990877  1251.59  0.990877  0.00912342  1293.7  0.0282514  0.971749  1293.7  0.971749  0.0282514  1347.49  0.0317504  0.96825  1347.49  0.96825  0.0317504  1541.04  0.992836  0.0071638  1541.04  0.0071638  0.992836  1556.84  0.992982  0.00701797  1556.84  0.00701797  0.992982  1651.99  0.991365  0.00863495  1651.99  0.00863495  0.991365  1702.55  0.990942  0.00905803  1702.55  0.00905803  0.990942  1756.08  0.0181077  0.981892  1756.08  0.981892  0.0181077  2059.17  0.00236359  0.997636  2059.17  0.997636  0.00236359  2112.55  0.99636  0.00363992  2112.55  0.00363992  0.99636  2265.61  0.0232341  0.976766  2265.61  0.976766  0.0232341  2673.79  0.000473857  0.999526  2673.79  0.999526  0.000473857  
2  -0.0455884  0.0263205   -13.3686  0.811629  0.188371  -2.72366  0.0293283  0.970672  13.7988  0.412593  0.587407  18.4231  0.219508  0.780492  36.5548  0.866284  0.133716  42.133  0.665724  0.334276  44.5675  0.800326  0.199674  52.4673  0.705638  0.294362  54.205  0.813701  0.186299  57.3979  0.562594  0.437406  74.3815  0.244793  0.755207  74.8354  0.268827  0.731173  76.3537  0.511789  0.488211  110.826  0.0724802  0.92752  110.84  0.0829456  0.917054  111.817  0.0759658  0.924034  122.853  0.11245  0.88755  123.899  0.131194  0.868806  124.366  0.136681  0.863319  150.546  0.949699  0.0503007  150.606  0.959086  0.0409136  151.181  0.936533  0.063467  155.35  0.869402  0.130598  155.86  0.869193  0.130807  155.944  0.846019  0.153981  198.931  0.699703  0.300297  199.778  0.734748  0.265252  200.254  0.663606  0.336394  203.042  0.91072  0.0892795  203.391  0.8291  0.1709  204.482  0.887315  0.112685  220.426  0.322316  0.677684  220.655  0.338496  0.661504  220.849  0.351227  0.648773  231.581  0.0901438  0.909856  231.682  0.0924258  0.907574  231.715  0.0949641  0.905036  269.665  0.0267683  0.973232  269.67  0.0268527  0.973147  270.125  0.0270589  0.972941  321.115  0.0929306  0.907069  321.127  0.0943302  0.90567  321.625  0.0929966  0.907003  323.395  0.0678698  0.93213  323.404  0.0690167  0.930983  324.107  0.0641106  0.935889  348.73  0.977917  0.0220828  348.782  0.975344  0.0246561  349.119  0.975257  0.024743  353.093  0.882148  0.117852  353.163  0.879118  0.120882  353.784  0.885845  0.114155  363.615  0.967467  0.0325329  363.656  0.966177  0.0338232  364.21  0.968602  0.0313981  366.856  0.957336  0.0426636  366.881  0.956825  0.0431752  367.807  0.961889  0.0381111  425.135  0.0404351  0.959565  425.152  0.040222  0.959778  425.858  0.0375408  0.962459  456.845  0.842009  0.157991  457.097  0.845814  0.154186  457.59  0.861791  0.138209  457.682  0.850618  0.149382  458.297  0.859452  0.140548  458.744  0.864647  0.135353  480.463  0.158437  0.841563  480.717  0.158867  0.841133  481.359  0.152572  0.847428  482.261  0.131837  0.868163  482.599  0.134186  0.865814  483.285  0.126222  0.873778  518.908  0.0146265  0.985373  518.909  0.0146354  0.985365  534.123  0.0205277  0.979472  534.125  0.0205304  0.97947  610.058  0.987734  0.0122659  610.074  0.987927  0.0120732  611.76  0.955855  0.0441452  611.784  0.956985  0.0430154  628.48  0.0599814  0.940019  628.713  0.0627201  0.93728  629.167  0.0737857  0.926214  629.834  0.0664742  0.933526  662.746  0.978238  0.0217617  663.119  0.978926  0.0210736  664.934  0.977548  0.0224516  665.529  0.978954  0.0210455  666.163  0.940085  0.0599155  666.369  0.93983  0.0601702  668.209  0.948048  0.0519516  668.502  0.948393  0.0516067  725.549  0.0307217  0.969278  725.908  0.0305883  0.969412  740.665  0.0162731  0.983727  741.089  0.0160974  0.983903  814.268  0.852363  0.147637  814.281  0.85291  0.14709  814.294  0.853446  0.146554  831.456  0.0089621  0.991038  831.74  0.00908351  0.990916  838.374  0.1474  0.8526  838.409  0.146847  0.853153  838.444  0.146296  0.853704  884.575  0.0143814  0.985619  884.626  0.0136817  0.986318  886.893  0.0148462  0.985154  887.074  0.0135083  0.986492  961.841  0.992051  0.00794885  962.09  0.993058  0.00694163  963.872  0.98031  0.0196902  964.01  0.981289  0.0187112  977.456  0.989917  0.0100829  977.788  0.99151  0.00848981  979.283  0.988385  0.0116155  979.46  0.989411  0.0105886  1037.03  0.0554395  0.944561  1037.38  0.0546252  0.945375  1037.4  0.0544296  0.94557  1071.96  0.971712  0.0282878  1072.11  0.96086  0.0391396  1072.43  0.981903  0.0180967  1075.29  0.944404  0.0555965  1075.8  0.946355  0.0536451  1075.88  0.946738  0.0532624  1089.36  0.034262  0.965738  1089.96  0.0224415  0.977559  1142.29  0.0173552  0.982645  1142.93  0.0174547  0.982545  1144.59  0.0154291  0.984571  1234.53  0.00541933  0.994581  1250.29  0.00650038  0.9935  1274.23  0.855715  0.144285  1274.44  0.852032  0.147968  1274.7  0.854777  0.145223  1298.34  0.149074  0.850926  1298.46  0.143225  0.856775  1298.73  0.1454  0.8546  1344.67  0.0147265  0.985273  1378.06  0.996631  0.00336869  1379.17  0.988421  0.0115793  1430.55  0.992513  0.00748729  1432.19  0.988038  0.0119621  1548.33  0.0534766  0.946523  1549.89  0.0092204  0.99078  1583.45  0.983474  0.0165258  1586.27  0.94554  0.0544598  1653.64  0.0167428  0.983257  1701.58  0.00275734  0.997243  1754.14  0.00589156  0.994108  1889.54  0.99789  0.0021103  1890.3  0.98939  0.0106099  1907.17  0.0143537  0.985646  1992.64  0.994333  0.00566746  1993.98  0.98869  0.0113097  2112.47  0.00698376  0.993016  2264.14  0.00179405  0.998206  2367.3  0.0043862  0.995614  2503.53  0.99953  0.000469787  2504.01  0.994463  0.00553668  2929.19  0.000397783  0.999602  
3  -0.0455884  -0.0263205   -13.3686  0.188371  0.811629  -2.72366  0.970672  0.0293283  13.7988  0.587407  0.412593  18.4231  0.780492  0.219508  36.5548  0.133716  0.866284  42.133  0.334276  0.665724  44.5675  0.199674  0.800326  52.4673  0.294362  0.705638  54.205  0.186299  0.813701  57.3979  0.437406  0.562594  74.3815  0.755207  0.244793  74.8354  0.731173  0.268827  76.3537  0.488211  0.511789  110.826  0.92752  0.0724802  110.84  0.917054  0.0829456  111.817  0.924034  0.0759658  122.853  0.88755  0.11245  123.899  0.868806  0.131194  124.366  0.863319  0.136681  150.546  0.0503007  0.949699  150.606  0.0409136  0.959086  151.181  0.063467  0.936533  155.35  0.130598  0.869402  155.86  0.130807  0.869193  155.944  0.153981  0.846019  198.931  0.300297  0.699703  199.778  0.265252  0.734748  200.254  0.336394  0.663606  203.042  0.0892795  0.91072  203.391  0.1709  0.8291  204.482  0.112685  0.887315  220.426  0.677684  0.322316  220.655  0.661504  0.338496  220.849  0.648773  0.351227  231.581  0.909856  0.0901438  231.682  0.907574  0.0924258  231.715  0.905036  0.0949641  269.665  0.973232  0.0267683  269.67  0.973147  0.0268527  270.125  0.972941  0.0270589  321.115  0.907069  0.0929306  321.127  0.90567  0.0943302  321.625  0.907003  0.0929966  323.395  0.93213  0.0678698  323.404  0.930983  0.0690167  324.107  0.935889  0.0641106  348.73  0.0220828  0.977917  348.782  0.0246561  0.975344  349.119  0.024743  0.975257  353.093  0.117852  0.882148  353.163  0.120882  0.879118  353.784  0.114155  0.885845  363.615  0.0325329  0.967467  363.656  0.0338232  0.966177  364.21  0.0313981  0.968602  366.856  0.0426636  0.957336  366.881  0.0431752  0.956825  367.807  0.0381111  0.961889  425.135  0.959565  0.0404351  425.152  0.959778  0.040222  425.858  0.962459  0.0375408  456.845  0.157991  0.842009  457.097  0.154186  0.845814  457.59  0.138209  0.861791  457.682  0.149382  0.850618  458.297  0.140548  0.859452  458.744  0.135353  0.864647  480.463  0.841563  0.158437  480.717  0.841133  0.158867  481.359  0.847428  0.152572  482.261  0.868163  0.131837  482.599  0.865814  0.134186  483.285  0.873778  0.126222  518.908  0.985373  0.0146265  518.909  0.985365  0.0146354  534.123  0.979472  0.0205277  534.125  0.97947  0.0205304  610.058  0.0122659  0.987734  610.074  0.0120732  0.987927  611.76  0.0441452  0.955855  611.784  0.0430154  0.956985  628.48  0.940019  0.0599814  628.713  0.93728  0.0627201  629.167  0.926214  0.0737857  629.834  0.933526  0.0664742  662.746  0.0217617  0.978238  663.119  0.0210736  0.978926  664.934  0.0224516  0.977548  665.529  0.0210455  0.978954  666.163  0.0599155  0.940085  666.369  0.0601702  0.93983  668.209  0.0519516  0.948048  668.502  0.0516067  0.948393  725.549  0.969278  0.0307217  725.908  0.969412  0.0305883  740.665  0.983727  0.0162731  741.089  0.983903  0.0160974  814.268  0.147637  0.852363  814.281  0.14709  0.85291  814.294  0.146554  0.853446  831.456  0.991038  0.0089621  831.74  0.990916  0.00908351  838.374  0.8526  0.1474  838.409  0.853153  0.146847  838.444  0.853704  0.146296  884.575  0.985619  0.0143814  884.626  0.986318  0.0136817  886.893  0.985154  0.0148462  887.074  0.986492  0.0135083  961.841  0.00794885  0.992051  962.09  0.00694163  0.993058  963.872  0.0196902  0.98031  964.01  0.0187112  0.981289  977.456  0.0100829  0.989917  977.788  0.00848981  0.99151  979.283  0.0116155  0.988385  979.46  0.0105886  0.989411  1037.03  0.944561  0.0554395  1037.38  0.945375  0.0546252  1037.4  0.94557  0.0544296  1071.96  0.0282878  0.971712  1072.11  0.0391396  0.96086  1072.43  0.0180967  0.981903  1075.29  0.0555965  0.944404  1075.8  0.0536451  0.946355  1075.88  0.0532624  0.946738  1089.36  0.965738  0.034262  1089.96  0.977559  0.0224415  1142.29  0.982645  0.0173552  1142.93  0.982545  0.0174547  1144.59  0.984571  0.0154291  1234.53  0.994581  0.00541933  1250.29  0.9935  0.00650038  1274.23  0.144285  0.855715  1274.44  0.147968  0.852032  1274.7  0.145223  0.854777  1298.34  0.850926  0.149074  1298.46  0.856775  0.143225  1298.73  0.8546  0.1454  1344.67  0.985273  0.0147265  1378.06  0.00336869  0.996631  1379.17  0.0115793  0.988421  1430.55  0.00748729  0.992513  1432.19  0.0119621  0.988038  1548.33  0.946523  0.0534766  1549.89  0.99078  0.0092204  1583.45  0.0165258  0.983474  1586.27  0.0544598  0.94554  1653.64  0.983257  0.0167428  1701.58  0.997243  0.00275734  1754.14  0.994108  0.00589156  1889.54  0.0021103  0.99789  1890.3  0.0106099  0.98939  1907.17  0.985646  0.0143537  1992.64  0.00566746  0.994333  1993.98  0.0113097  0.98869  2112.47  0.993016  0.00698376  2264.14  0.998206  0.00179405  2367.3  0.995614  0.0043862  2503.53  0.000469787  0.99953  2504.01  0.00553668  0.994463  2929.19  0.999602  0.000397783  
4  0.0151961  -0.0263205   -11.6185  0.5  0.5  -2.94903  0.5  0.5  8.16136  0.5  0.5  24.4052  0.5  0.5  32.003  0.5  0.5  34.2937  0.5  0.5  42.0838  0.5  0.5  52.9505  0.5  0.5  63.2295  0.5  0.5  70.5981  0.5  0.5  72.2245  0.5  0.5  80.8002  0.5  0.5  90.2247  0.5  0.5  93.277  0.5  0.5  101.841  0.5  0.5  108.645  0.5  0.5  112.106  0.500001  0.499999  112.52  0.499999  0.500001  139.822  0.500003  0.499997  140.455  0.499997  0.500003  152.233  0.5  0.5  157.717  0.5  0.5  158.145  0.5  0.5  162.318  0.5  0.5  173.702  0.5  0.5  176.06  0.500005  0.499995  176.733  0.499995  0.500005  187.018  0.5  0.5  207.039  0.494525  0.505475  207.1  0.505473  0.494527  210.243  0.499989  0.500011  211.793  0.500012  0.499988  238.253  0.5  0.5  243.289  0.319143  0.680857  243.291  0.680857  0.319143  254.199  0.5  0.5  272.992  0.500678  0.499322  273.073  0.499247  0.500753  273.854  0.500474  0.499526  274.399  0.499584  0.500416  281.005  0.521202  0.478798  281.008  0.478817  0.521183  294.412  0.500093  0.499907  298.167  0.499906  0.500094  301.178  0.84922  0.15078  301.179  0.150773  0.849227  343.005  0.499024  0.500976  343.216  0.500975  0.499025  345.334  0.499506  0.500494  345.861  0.500499  0.499501  361.383  0.51951  0.48049  361.42  0.480467  0.519533  378.373  0.499929  0.500071  382.008  0.500071  0.499929  385.247  0.487323  0.512677  385.299  0.512688  0.487312  407.037  0.50001  0.49999  412.673  0.556918  0.443082  412.687  0.442954  0.557046  423.783  0.499996  0.500004  427.102  0.0187111  0.981289  427.465  0.981  0.0190004  430.409  0.499255  0.500745  430.764  0.500685  0.499315  449.849  0.0261907  0.973809  450.327  0.975042  0.0249579  453.097  0.411628  0.588372  453.154  0.588187  0.411813  508.876  0.499994  0.500006  512.772  0.573131  0.426869  513.276  0.373215  0.626785  513.456  0.896975  0.103025  513.877  0.172141  0.827859  518.021  0.538092  0.461908  518.602  0.44594  0.55406  525.746  0.500003  0.499997  550.778  0.976497  0.0235026  551.211  0.0230481  0.976952  554.078  0.942943  0.0570572  554.805  0.0536923  0.946308  564.834  0.147894  0.852106  565.376  0.85624  0.14376  582.512  0.565546  0.434454  585.56  0.433553  0.566447  588.967  0.854483  0.145517  589.655  0.139302  0.860698  614.349  0.0145126  0.985487  614.669  0.985222  0.014778  616.886  0.0398058  0.960194  617.491  0.962211  0.0377886  637.344  0.0174684  0.982532  637.748  0.983072  0.016928  639.785  0.0481169  0.951883  640.524  0.954158  0.0458417  683.845  0.853125  0.146875  684.983  0.143342  0.856658  701.559  0.434704  0.565296  704.321  0.566329  0.433671  707.981  0.146361  0.853639  708.979  0.856441  0.143559  717.974  0.0105753  0.989425  719.929  0.955735  0.0442648  720.503  0.0424492  0.957551  747.563  0.492184  0.507816  753.791  0.932148  0.0678523  754.201  0.0709732  0.929027  755.655  0.01671  0.98329  757.805  0.935211  0.0647886  758.461  0.0568581  0.943142  764.429  0.509497  0.490503  788.875  0.0213386  0.978661  792.281  0.944844  0.0551564  792.426  0.0533239  0.946676  835.711  0.991042  0.00895821  838.283  0.978412  0.021588  858.828  0.987781  0.0122192  861.451  0.98419  0.0158101  883.644  0.507328  0.492672  889.921  0.0551643  0.944836  900.542  0.491226  0.508774  924.55  0.977375  0.0226254  928.419  0.946594  0.0534062  956.078  0.00787673  0.992123  957.073  0.144618  0.855382  957.816  0.0251297  0.97487  976.152  0.967125  0.0328752  981.089  0.855132  0.144868  993.792  0.0111155  0.988885  995.804  0.0181882  0.981812  1027.92  0.0122588  0.987741  1030.01  0.0281192  0.971881  1092.93  0.984007  0.0159928  1109.92  0.852077  0.147923  1116.63  0.986615  0.0133849  1129.23  0.0287927  0.971207  1133.81  0.149186  0.850814  1183.04  0.972083  0.0279167  1228.55  0.993765  0.00623484  1266.32  0.991666  0.00833368  1300.46  0.991531  0.00846925  1380.75  0.00549446  0.994506  1382.16  0.0142887  0.985711  1401.88  0.966299  0.0337012  1404.79  0.00535087  0.994649  1406.03  0.0235534  0.976447  1470.51  0.00843175  0.991568  1472.16  0.0169576  0.983042  1537.47  0.990972  0.00902838  1575.02  0.991142  0.0088584  1704.3  0.995499  0.00450092  1728.35  0.995772  0.00422755  1794.11  0.993855  0.00614526  1876.97  0.00268075  0.997319  1877.9  0.00697358  0.993026  1914.47  0.00370171  0.996298  1915.46  0.00682899  0.993171  2066.99  0.994408  0.00559205  2251.58  0.997756  0.00224353  2289.1  0.996991  0.00300927  2458.12  0.000469795  0.99953  2458.54  0.00461119  0.995389  2883.78  0.999602  0.000397787  
